; File: 8CFIELD.TBL
; Created by program SegField from data in file:
;8C82BE1.SFO  02-05-2020  17:42:24

Center
Title
Fields and power on segments   6 through  30

Abscissa  3
Xscale       0.00000    116.03042
Ordinate 4 5 7
Titles
Z
R
S
Electric field
Magnetic field
Power density
Radiation pressure
EndTitles

AxisLabels
Z (cm)
R (cm)
S (cm)
E (MV/m)
H (kA/m)
Power density (W/cm^2)
Radiation pressure (kPa)
EndLabels

CurveLabels
Z
R
S
E
H
P.D.
P (kPa)
EndLabels

Data
;  Z       R         S         E         H          P.D.        P (kPa)
 0.00000   8.00000    0.0000  22.45156    0.00000  0.00000000  -1.115788
 0.10113   8.00499    0.1013  22.52382   -0.88585  0.00000058  -1.122736
 0.20226   8.00998    0.2025  22.65506   -1.77511  0.00000234  -1.135117
 0.30148   8.02461    0.3028  22.60024   -2.62550  0.00000513  -1.128450
 0.40069   8.03923    0.4031  22.68247   -3.55944  0.00000942  -1.134877
 0.49646   8.06259    0.5017  22.63180   -4.41738  0.00001451  -1.127645
 0.59223   8.08595    0.6002  22.61270   -5.27134  0.00002066  -1.123133
 0.68357   8.11683    0.6967  22.67666   -6.09955  0.00002766  -1.126586
 0.77491   8.14771    0.7931  22.81952   -6.93889  0.00003580  -1.137536
 0.86138   8.18487    0.8872  22.81454   -7.74143  0.00004456  -1.133331
 0.94786   8.22202    0.9813  22.83115   -8.54123  0.00005424  -1.130918
 1.02940   8.26431    1.0732  22.90508   -9.31287  0.00006448  -1.134074
 1.11094   8.30660    1.1650  22.94079  -10.09199  0.00007572  -1.132949
 1.18773   8.35306    1.2548  22.97153  -10.83539  0.00008729  -1.131185
 1.26451   8.39952    1.3445  23.01306  -11.57713  0.00009965  -1.130189
 1.33683   8.44939    1.4324  23.09113  -12.29478  0.00011239  -1.132776
 1.40915   8.49926    1.5202  23.07452  -13.01742  0.00012599  -1.125331
 1.47733   8.55191    1.6064  23.12353  -13.70932  0.00013974  -1.124533
 1.54552   8.60457    1.6925  23.16838  -14.40455  0.00015427  -1.122989
 1.60990   8.65952    1.7771  23.21324  -15.07569  0.00016898  -1.121378
 1.67428   8.71447    1.8618  23.25394  -15.74766  0.00018438  -1.119058
 1.73519   8.77135    1.9451  23.28965  -16.39803  0.00019992  -1.116169
 1.79610   8.82822    2.0285  23.32869  -17.04674  0.00021605  -1.113382
 1.85381   8.88670    2.1106  23.38351  -17.67884  0.00023237  -1.112155
 1.91152   8.94519    2.1928  23.33866  -18.31343  0.00024935  -1.100340
 1.96631   9.00504    2.2739  23.38102  -18.92725  0.00026635  -1.097540
 2.02109   9.06490    2.3551  23.38766  -19.54274  0.00028395  -1.090789
 2.07318   9.12592    2.4353  23.42006  -20.14079  0.00030160  -1.086690
 2.12528   9.18695    2.5155  23.42255  -20.73966  0.00031980  -1.079257
 2.17487   9.24899    2.5950  23.44664  -21.32275  0.00033804  -1.074050
 2.22447   9.31103    2.6744  23.44249  -21.90668  0.00035680  -1.065689
 2.27176   9.37394    2.7531  23.45744  -22.47565  0.00037558  -1.059308
 2.31906   9.43686    2.8318  23.44581  -23.04462  0.00039484  -1.049964
 2.36420   9.50055    2.9099  23.45328  -23.60113  0.00041414  -1.042585
 2.40935   9.56423    2.9879  23.43501  -24.15598  0.00043384  -1.032364
 2.45249   9.62860    3.0654  23.43501  -24.70004  0.00045360  -1.024013
 2.49563   9.69296    3.1429  23.41009  -25.24243  0.00047374  -1.012919
 2.53690   9.75793    3.2199  23.40179  -25.77319  0.00049387  -1.003552
 2.57817   9.82289    3.2968  23.36939  -26.30396  0.00051442  -0.991515
 2.61768   9.88840    3.3733  23.35361  -26.82309  0.00053493  -0.981218
 2.65719   9.95390    3.4498  23.31457  -27.34140  0.00055580  -0.968366
 2.69505  10.01990    3.5259  23.29381  -27.84974  0.00057666  -0.957409
 2.73290  10.08590    3.6020  23.22569  -28.35641  0.00059783  -0.941449
 2.76918  10.15230    3.6777  23.18998  -28.85229  0.00061893  -0.928867
 2.80547  10.21870    3.7533  23.14014  -29.34734  0.00064035  -0.914705
 2.84027  10.28550    3.8287  23.11605  -29.83408  0.00066176  -0.903189
 2.87507  10.35230    3.9040  23.07037  -30.31667  0.00068335  -0.889399
 2.90846  10.41940    3.9789  23.02718  -30.79178  0.00070493  -0.875870
 2.94185  10.48660    4.0540  22.96820  -31.26523  0.00072678  -0.860636
 2.97390  10.55410    4.1287  22.91754  -31.73038  0.00074856  -0.846284
 3.00595  10.62150    4.2033  22.83697  -32.19469  0.00077063  -0.828799
 3.03672  10.68930    4.2778  22.77550  -32.64987  0.00079258  -0.813321
 3.06749  10.75710    4.3522  22.69244  -33.10172  0.00081466  -0.795627
 3.09703  10.82510    4.4264  22.62599  -33.54610  0.00083668  -0.779657
 3.12657  10.89310    4.5005  22.51801  -33.98799  0.00085887  -0.759491
 3.15494  10.96140    4.5745  22.43827  -34.42157  0.00088093  -0.742238
 3.18330  11.02970    4.6484  22.34607  -34.85266  0.00090313  -0.723716
 3.21054  11.09820    4.7222  22.27547  -35.27711  0.00092526  -0.707391
 3.23778  11.16670    4.7959  22.18742  -35.69657  0.00094739  -0.689373
 3.26393  11.23540    4.8694  22.10021  -36.11022  0.00096948  -0.671492
 3.29008  11.30410    4.9429  22.00137  -36.52137  0.00099168  -0.652461
 3.31518  11.37310    5.0163  21.90834  -36.92505  0.00101372  -0.634104
 3.34029  11.44200    5.0896  21.77045  -37.32624  0.00103587  -0.611415
 3.36438  11.51100    5.1627  21.66414  -37.71912  0.00105779  -0.591930
 3.38847  11.58010    5.2359  21.54204  -38.10868  0.00107976  -0.570973
 3.41158  11.64940    5.3090  21.44236  -38.49242  0.00110161  -0.552254
 3.43470  11.71860    5.3819  21.32691  -38.87118  0.00112340  -0.532118
 3.45686  11.78800    5.4548  21.21394  -39.24413  0.00114506  -0.512328
 3.47903  11.85740    5.5276  21.07191  -39.61209  0.00116663  -0.489918
 3.50027  11.92690    5.6003  20.94731  -39.97507  0.00118811  -0.469254
 3.52151  11.99650    5.6731  20.80196  -40.33390  0.00120953  -0.446767
 3.54186  12.06620    5.7457  20.68069  -40.68608  0.00123075  -0.426668
 3.56221  12.13580    5.8182  20.54530  -41.03411  0.00125189  -0.405378
 3.58169  12.20560    5.8907  20.41157  -41.37549  0.00127281  -0.384415
 3.60117  12.27540    5.9631  20.25043  -41.71272  0.00129364  -0.361109
 3.61980  12.34530    6.0355  20.10756  -42.04331  0.00131423  -0.339648
 3.63843  12.41520    6.1078  19.94310  -42.37057  0.00133477  -0.316389
 3.65624  12.48520    6.1800  19.80106  -42.69119  0.00135505  -0.295325
 3.67404  12.55530    6.2524  19.64657  -43.00599  0.00137510  -0.273359
 3.69104  12.62540    6.3245  19.49290  -43.31581  0.00139499  -0.251644
 3.70803  12.69550    6.3966  19.31432  -43.62065  0.00141469  -0.227978
 3.72424  12.76570    6.4687  19.15235  -43.91884  0.00143410  -0.205986
 3.74044  12.83590    6.5407  18.96879  -44.21288  0.00145337  -0.182355
 3.75587  12.90620    6.6127  18.80682  -44.50110  0.00147238  -0.160779
 3.77130  12.97650    6.6847  18.63322  -44.78268  0.00149107  -0.138494
 3.78597  13.04680    6.7565  18.46045  -45.05928  0.00150955  -0.116501
 3.80064  13.11720    6.8284  18.26359  -45.33006  0.00152774  -0.092809
 3.81457  13.18760    6.9002  18.08252  -45.59502  0.00154566  -0.070672
 3.82850  13.25810    6.9720  17.87902  -45.85501  0.00156333  -0.047004
 3.84169  13.32860    7.0437  17.69628  -46.10918  0.00158071  -0.025271
 3.85489  13.39910    7.1155  17.50275  -46.35670  0.00159773  -0.003001
 3.86736  13.46970    7.1872  17.30921  -46.59841  0.00161443   0.018971
 3.87984  13.54030    7.2589  17.09159  -46.83430  0.00163082   0.042466
 3.89161  13.61090    7.3304  16.89058  -47.06438  0.00164688   0.064374
 3.90337  13.68150    7.4020  16.65967  -47.28865  0.00166261   0.088170
 3.91444  13.75220    7.4736  16.44870  -47.50710  0.00167801   0.110137
 3.92551  13.82290    7.5451  16.23107  -47.71808  0.00169295   0.132191
 3.93590  13.89370    7.6167  16.01345  -47.92324  0.00170754   0.153888
 3.94628  13.96440    7.6881  15.77008  -48.12176  0.00172171   0.177001
 3.95598  14.03520    7.7596  15.53086  -48.31446  0.00173553   0.199413
 3.96569  14.10600    7.8311  15.29165  -48.49969  0.00174886   0.221368
 3.97472  14.17680    7.9024  15.05243  -48.67827  0.00176177   0.242888
 3.98375  14.24760    7.9738  14.77833  -48.84938  0.00177417   0.266230
 3.99220  14.31640    8.0431  14.54492  -49.00886  0.00178578   0.286283
 4.00064  14.38520    8.1124  14.27580  -49.16252  0.00179699   0.308191
 4.00909  14.45400    8.1818  14.02579  -49.30954  0.00180776   0.328402
 4.01753  14.52280    8.2511  13.80069  -49.45074  0.00181812   0.346647
 4.02598  14.59160    8.3204  13.57393  -49.58614  0.00182809   0.364600
 4.03442  14.66030    8.3896  13.33804  -49.71571  0.00183766   0.382695
 4.04287  14.72910    8.4589  13.11128  -49.83947  0.00184682   0.399842
 4.05132  14.79790    8.5282  12.89117  -49.95825  0.00185563   0.416235
 4.05976  14.86670    8.5976  12.66939  -50.07122  0.00186403   0.432333
 4.06821  14.93550    8.6669  12.44014  -50.17753  0.00187196   0.448423
 4.07665  15.00430    8.7362  12.21920  -50.27970  0.00187959   0.463708
 4.08510  15.07300    8.8054  11.98496  -50.37605  0.00188680   0.479304
 4.09354  15.14180    8.8747  11.75571  -50.46742  0.00189365   0.494246
 4.10199  15.21060    8.9440  11.52896  -50.55297  0.00190008   0.508649
 4.11043  15.27940    9.0134  11.30220  -50.63271  0.00190608   0.522643
 4.11888  15.34820    9.0827  11.05218  -50.70664  0.00191165   0.537368
 4.12732  15.41700    9.1520  10.79469  -50.77475  0.00191678   0.551992
 4.13577  15.48570    9.2212  10.55381  -50.83704  0.00192149   0.565363
 4.14422  15.55450    9.2905  10.31210  -50.89269  0.00192570   0.578306
 4.15266  15.62330    9.3598  10.04298  -50.94170  0.00192941   0.592000
 4.16186  15.69210    9.4293   9.77802  -50.98572  0.00193275   0.605035
 4.17106  15.76090    9.4987   9.55043  -51.02393  0.00193564   0.615996
 4.18177  15.82950    9.5681   9.32450  -51.05716  0.00193817   0.626501
 4.19248  15.89820    9.6376   9.09691  -51.08457  0.00194025   0.636661
 4.20471  15.96670    9.7072   8.89341  -51.10866  0.00194208   0.645538
 4.21694  16.03530    9.7769   8.70071  -51.12610  0.00194340   0.653603
 4.23070  16.10370    9.8467   8.50219  -51.14188  0.00194460   0.661670
 4.24447  16.17210    9.9164   8.32527  -51.15351  0.00194549   0.668634
 4.25977  16.24030    9.9863   8.15051  -51.16265  0.00194618   0.675301
 4.27508  16.30860   10.0563   7.98455  -51.16680  0.00194650   0.681362
 4.29195  16.37660   10.1264   7.81975  -51.17012  0.00194675   0.687234
 4.30882  16.44470   10.1965   7.67091  -51.16846  0.00194663   0.692284
 4.32727  16.51250   10.2668   7.51043  -51.16514  0.00194637   0.697570
 4.34572  16.58040   10.3372   7.36009  -51.15849  0.00194587   0.702305
 4.36577  16.64800   10.4077   7.21199  -51.15102  0.00194530   0.706842
 4.38582  16.71570   10.4783   7.07345  -51.13939  0.00194441   0.710849
 4.40749  16.78300   10.5490   6.93207  -51.12693  0.00194347   0.714832
 4.42916  16.85040   10.6198   6.80067  -51.11115  0.00194227   0.718319
 4.45247  16.91750   10.6908   6.66063  -51.09370  0.00194094   0.721932
 4.47579  16.98470   10.7620   6.53022  -51.07377  0.00193943   0.725100
 4.50077  17.05150   10.8333   6.39558  -51.05217  0.00193779   0.728259
 4.52576  17.11830   10.9046   6.26667  -51.02892  0.00193602   0.731127
 4.55244  17.18480   10.9762   6.13992  -51.00400  0.00193413   0.733809
 4.57913  17.25130   11.0479   6.01798  -50.97659  0.00193205   0.736212
 4.60754  17.31740   11.1198   5.89638  -50.94835  0.00192991   0.738515
 4.63595  17.38360   11.1919   5.78317  -50.91844  0.00192765   0.740485
 4.66612  17.44930   11.2642   5.66239  -50.88771  0.00192532   0.742562
 4.69630  17.51510   11.3366   5.54852  -50.85366  0.00192275   0.744299
 4.72827  17.58040   11.4093   5.43074  -50.82043  0.00192024   0.746100
 4.76023  17.64580   11.4821   5.31985  -50.78388  0.00191747   0.747573
 4.79404  17.71070   11.5552   5.20497  -50.74734  0.00191472   0.749083
 4.82784  17.77560   11.6284   5.09733  -50.70830  0.00191177   0.750294
 4.86351  17.83990   11.7020   4.98478  -50.67009  0.00190889   0.751588
 4.89919  17.90430   11.7756   4.87215  -50.62856  0.00190576   0.752724
 4.93678  17.96820   11.8497   4.76242  -50.58703  0.00190264   0.753744
 4.97437  18.03200   11.9238   4.65693  -50.54301  0.00189933   0.754545
 5.01392  18.09530   11.9984   4.54987  -50.49981  0.00189608   0.755355
 5.05347  18.15860   12.0730   4.45028  -50.45413  0.00189265   0.755891
 5.09504  18.22120   12.1482   4.35251  -50.40928  0.00188929   0.756374
 5.13660  18.28380   12.2233   4.25533  -50.36276  0.00188581   0.756753
 5.18023  18.34580   12.2991   4.16006  -50.31625  0.00188232   0.757057
 5.22385  18.40770   12.3749   4.06105  -50.26890  0.00187878   0.757363
 5.26959  18.46890   12.4513   3.95947  -50.22156  0.00187525   0.757671
 5.31533  18.53010   12.5277   3.85323  -50.17172  0.00187153   0.757937
 5.36325  18.59050   12.6048   3.75497  -50.12271  0.00186787   0.758048
 5.41116  18.65080   12.6818   3.66161  -50.07205  0.00186410   0.757985
 5.46131  18.71030   12.7596   3.56550  -50.02221  0.00186039   0.757956
 5.51146  18.76980   12.8374   3.47247  -49.96988  0.00185650   0.757761
 5.56390  18.82820   12.9159   3.37837  -49.91921  0.00185273   0.757598
 5.61635  18.88670   12.9945   3.28675  -49.86605  0.00184879   0.757283
 5.67115  18.94410   13.0738   3.19746  -49.81539  0.00184504   0.756978
 5.72595  19.00150   13.1532   3.10916  -49.76223  0.00184110   0.756548
 5.78318  19.05780   13.2335   3.01929  -49.71073  0.00183729   0.756158
 5.84041  19.11400   13.3137   2.92992  -49.65757  0.00183336   0.755675
 5.90014  19.16890   13.3948   2.84195  -49.60607  0.00182956   0.755193
 5.95986  19.22390   13.4760   2.75482  -49.55291  0.00182564   0.754617
 6.02214  19.27740   13.5581   2.66719  -49.50141  0.00182185   0.754066
 6.08442  19.33100   13.6403   2.57366  -49.44825  0.00181794   0.753498
 6.14932  19.38290   13.7234   2.48795  -49.39759  0.00181422   0.752885
 6.21423  19.43490   13.8065   2.40272  -49.34443  0.00181031   0.752159
 6.28182  19.48520   13.8908   2.31875  -49.29459  0.00180666   0.751492
 6.34940  19.53550   13.9750   2.23652  -49.24226  0.00180283   0.750701
 6.41973  19.58380   14.0604   2.15179  -49.19325  0.00179924   0.750009
 6.49005  19.63220   14.1457   2.06018  -49.14259  0.00179553   0.749298
 6.56315  19.67860   14.2323   1.97786  -49.09524  0.00179208   0.748572
 6.63626  19.72490   14.3189   1.89596  -49.04457  0.00178838   0.747712
 6.71217  19.76890   14.4066   1.81515  -48.99889  0.00178505   0.746969
 6.78808  19.81300   14.4944   1.74047  -48.95071  0.00178154   0.746074
 6.86681  19.85450   14.5834   1.66032  -48.90669  0.00177834   0.745324
 6.94554  19.89600   14.6724   1.58025  -48.86101  0.00177502   0.744496
 7.02707  19.93480   14.7627   1.50092  -48.82031  0.00177206   0.743788
 7.10860  19.97360   14.8530   1.42168  -48.77628  0.00176887   0.742950
 7.19289  20.00940   14.9445   1.33214  -48.73808  0.00176610   0.742326
 7.27717  20.04520   15.0361   1.25290  -48.69738  0.00176315   0.741533
 7.36412  20.07770   15.1289   1.17457  -48.66249  0.00176062   0.740887
 7.45106  20.11020   15.2217   1.09650  -48.62428  0.00175786   0.740112
 7.54054  20.13920   15.3158   1.01875  -48.59355  0.00175564   0.739537
 7.63001  20.16810   15.4098   0.94125  -48.55949  0.00175318   0.738834
 7.72181  20.19320   15.5050   0.85437  -48.53208  0.00175120   0.738343
 7.81362  20.21830   15.6002   0.77487  -48.50218  0.00174904   0.737719
 7.90750  20.23930   15.6964   0.69754  -48.47975  0.00174742   0.737287
 8.00138  20.26020   15.7926   0.62037  -48.45401  0.00174557   0.736728
 8.09702  20.27690   15.8896   0.54349  -48.43656  0.00174431   0.736395
 8.19267  20.29350   15.9867   0.46676  -48.41580  0.00174282   0.735935
 8.28970  20.30550   16.0845   0.38963  -48.40334  0.00174192   0.735702
 8.38672  20.31750   16.1823   0.31420  -48.38756  0.00174078   0.735340
 8.48471  20.32480   16.2805   0.23479  -48.38174  0.00174037   0.735260
 8.58269  20.33210   16.3788   0.15671  -48.37177  0.00173965   0.735024
 8.68116  20.33450   16.4773   0.07761  -48.37011  0.00173953   0.735015
 8.77964  20.33700   16.5758   0.00329  -48.36596  0.00173923   0.734902
 8.88268  20.33430   16.6789   0.08313  -48.37094  0.00173959   0.735038
 8.98572  20.33160   16.7819   0.16485  -48.37177  0.00173965   0.735019
 9.08821  20.32370   16.8847   0.24511  -48.38257  0.00174043   0.735274
 9.19070  20.31570   16.9875   0.32413  -48.39005  0.00174096   0.735402
 9.29209  20.30250   17.0898   0.40601  -48.40666  0.00174216   0.735775
 9.39348  20.28940   17.1920   0.48641  -48.42078  0.00174318   0.736045
 9.49330  20.27120   17.2935   0.56702  -48.44321  0.00174479   0.736540
 9.59311  20.25310   17.3949   0.64781  -48.46231  0.00174617   0.736904
 9.69093  20.23020   17.4954   0.73127  -48.48972  0.00174814   0.737484
 9.78875  20.20730   17.5958   0.81361  -48.51464  0.00174994   0.737962
 9.88422  20.18000   17.6951   0.90346  -48.54703  0.00175228   0.738608
 9.97969  20.15270   17.7944   0.98478  -48.57611  0.00175438   0.739155
10.07250  20.12130   17.8924   1.06651  -48.61348  0.00175708   0.739926
10.16540  20.08980   17.9905   1.14833  -48.64671  0.00175948   0.740540
10.25540  20.05460   18.0871   1.22665  -48.68824  0.00176249   0.741398
10.34550  20.01930   18.1839   1.31171  -48.72562  0.00176519   0.742064
10.43250  19.98060   18.2791   1.39743  -48.77047  0.00176845   0.742924
10.51960  19.94190   18.3744   1.48340  -48.81117  0.00177140   0.743623
10.60360  19.90000   18.4683   1.56347  -48.85852  0.00177484   0.744536
10.68770  19.85810   18.5623   1.64994  -48.90254  0.00177804   0.745273
10.76860  19.81330   18.6547   1.73732  -48.95238  0.00178166   0.746150
10.84960  19.76850   18.7473   1.82511  -48.99889  0.00178505   0.746889
10.92740  19.72110   18.8384   1.90651  -49.05039  0.00178880   0.747803
11.00530  19.67370   18.9296   1.99473  -49.09939  0.00179238   0.748552
11.08010  19.62390   19.0195   2.08393  -49.15172  0.00179620   0.749362
11.15490  19.57420   19.1093   2.17356  -49.20239  0.00179991   0.750083
11.22670  19.52230   19.1979   2.25554  -49.25638  0.00180386   0.750949
11.29850  19.47040   19.2865   2.34358  -49.30871  0.00180769   0.751673
11.36730  19.41660   19.3738   2.43288  -49.36353  0.00181172   0.752428
11.43620  19.36270   19.4613   2.52275  -49.41669  0.00181562   0.753092
11.50210  19.30710   19.5475   2.60897  -49.47234  0.00181971   0.753842
11.56800  19.25160   19.6336   2.69792  -49.52633  0.00182369   0.754476
11.63120  19.19440   19.7189   2.79909  -49.58198  0.00182779   0.754978
11.69430  19.13720   19.8041   2.89478  -49.63597  0.00183177   0.755455
11.75460  19.07860   19.8881   2.98847  -49.69162  0.00183588   0.755971
11.81500  19.02000   19.9723   3.08159  -49.74478  0.00183981   0.756381
11.87270  18.96010   20.0555   3.17619  -49.80043  0.00184393   0.756810
11.93040  18.90020   20.1386   3.27130  -49.85442  0.00184793   0.757143
11.98550  18.83910   20.2209   3.36483  -49.90925  0.00185199   0.757488
12.04060  18.77800   20.3032   3.45977  -49.96240  0.00185594   0.757721
12.09320  18.71580   20.3846   3.55753  -50.01723  0.00186002   0.757925
12.14580  18.65360   20.4661   3.65779  -50.06872  0.00186385   0.757943
12.19600  18.59040   20.5468   3.75738  -50.12271  0.00186787   0.758007
12.24610  18.52730   20.6274   3.86004  -50.17338  0.00187165   0.757873
12.29390  18.46320   20.7073   3.96096  -50.22571  0.00187556   0.757776
12.34160  18.39910   20.7872   4.06587  -50.27555  0.00187928   0.757486
12.38710  18.33420   20.8665   4.16853  -50.32621  0.00188307   0.757216
12.43250  18.26940   20.9456   4.27568  -50.37439  0.00188668   0.756737
12.47570  18.20370   21.0243   4.38034  -50.42340  0.00189035   0.756284
12.51890  18.13810   21.1028   4.48990  -50.46991  0.00189384   0.755607
12.56000  18.07170   21.1809   4.59671  -50.51726  0.00189739   0.754961
12.60100  18.00540   21.2589   4.70885  -50.56211  0.00190076   0.754075
12.63980  17.93840   21.3363   4.81807  -50.60696  0.00190414   0.753197
12.67870  17.87150   21.4137   4.93295  -50.64932  0.00190733   0.752065
12.71550  17.80400   21.4905   5.04483  -50.69169  0.00191052   0.750943
12.75230  17.73640   21.5675   5.16261  -50.73156  0.00191352   0.749552
12.78700  17.66840   21.6439   5.27724  -50.77142  0.00191653   0.748175
12.82180  17.60030   21.7203   5.39793  -50.80880  0.00191936   0.746515
12.85450  17.53170   21.7963   5.51172  -50.84535  0.00192212   0.744935
12.88730  17.46320   21.8723   5.63299  -50.87941  0.00192469   0.743031
12.91810  17.39420   21.9478   5.75493  -50.91346  0.00192727   0.741047
12.94890  17.32520   22.0234   5.88118  -50.94502  0.00192966   0.738805
12.97770  17.25580   22.0985   6.00976  -50.97576  0.00193199   0.736404
13.00660  17.18640   22.1737   6.13909  -51.00317  0.00193407   0.733805
13.03360  17.11670   22.2485   6.27290  -51.03058  0.00193615   0.731007
13.06070  17.04690   22.3233   6.41219  -51.05383  0.00193791   0.727842
13.08580  16.97680   22.3978   6.54335  -51.07709  0.00193968   0.724827
13.11100  16.90670   22.4723   6.68322  -51.09620  0.00194113   0.721345
13.13440  16.83630   22.5465   6.82027  -51.11447  0.00194252   0.717835
13.15770  16.76590   22.6206   6.96646  -51.12942  0.00194366   0.713854
13.17930  16.69520   22.6946   7.11514  -51.14271  0.00194467   0.709646
13.20090  16.62450   22.7685   7.26440  -51.15351  0.00194549   0.705242
13.22070  16.55350   22.8422   7.41732  -51.16265  0.00194618   0.700566
13.24050  16.48260   22.9158   7.57888  -51.16680  0.00194650   0.695337
13.25860  16.41140   22.9893   7.74060  -51.17012  0.00194675   0.689960
13.27660  16.34030   23.0626   7.91062  -51.16846  0.00194663   0.684016
13.29300  16.26890   23.1359   8.08281  -51.16431  0.00194631   0.677787
13.30930  16.19750   23.2091   8.25558  -51.15600  0.00194568   0.671271
13.32400  16.12590   23.2822   8.44737  -51.14686  0.00194498   0.663887
13.33870  16.05440   23.3552   8.64173  -51.13108  0.00194378   0.656027
13.35170  15.98270   23.4281   8.84773  -51.11281  0.00194239   0.647466
13.36460  15.91100   23.5009   9.06036  -51.08872  0.00194056   0.638263
13.37600  15.83910   23.5737   9.27383  -51.06048  0.00193842   0.628694
13.38730  15.76730   23.6464   9.48813  -51.02642  0.00193583   0.618701
13.39690  15.69530   23.7190   9.79629  -50.98822  0.00193294   0.604323
13.40660  15.62330   23.7917  10.04298  -50.94170  0.00192941   0.592000
13.41510  15.55450   23.8610  10.31459  -50.89353  0.00192576   0.578219
13.42350  15.48570   23.9303  10.55713  -50.83704  0.00192149   0.565208
13.43190  15.41700   23.9995  10.79884  -50.77475  0.00191678   0.551793
13.44040  15.34820   24.0689  11.04055  -50.70747  0.00191171   0.537963
13.44880  15.27940   24.1382  11.30137  -50.63271  0.00190608   0.522685
13.45730  15.21060   24.2075  11.52812  -50.55297  0.00190008   0.508691
13.46570  15.14180   24.2768  11.75488  -50.46742  0.00189365   0.494289
13.47420  15.07300   24.3461  11.98081  -50.37688  0.00188686   0.479551
13.48260  15.00430   24.4153  12.21837  -50.27970  0.00187959   0.463753
13.49110  14.93550   24.4847  12.43931  -50.17753  0.00187196   0.448469
13.49950  14.86670   24.5540  12.66939  -50.07122  0.00186403   0.432333
13.50800  14.79790   24.6233  12.89034  -49.95825  0.00185563   0.416283
13.51640  14.72910   24.6926  13.11128  -49.83947  0.00184682   0.399842
13.52480  14.66030   24.7619  13.33139  -49.71571  0.00183766   0.383087
13.53330  14.59160   24.8311  13.57476  -49.58614  0.00182809   0.364550
13.54170  14.52280   24.9004  13.80152  -49.45074  0.00181812   0.346597
13.55020  14.45400   24.9698  14.02828  -49.30954  0.00180776   0.328247
13.55860  14.38520   25.0391  14.25421  -49.16335  0.00179705   0.309580
13.56710  14.31640   25.1084  14.53994  -49.00969  0.00178584   0.286629
13.57550  14.24760   25.1777  14.77417  -48.84938  0.00177417   0.266502
13.58440  14.17820   25.2477  15.01007  -48.68159  0.00176201   0.245808
13.59320  14.10870   25.3177  15.24513  -48.50800  0.00174946   0.224765
13.60270  14.03930   25.3878  15.53086  -48.32526  0.00173631   0.199741
13.61220  13.96980   25.4579  15.75347  -48.13754  0.00172284   0.178637
13.62240  13.90050   25.5280  16.00265  -47.94318  0.00170896   0.155254
13.63250  13.83110   25.5981  16.21778  -47.74217  0.00169466   0.133868
13.64330  13.76170   25.6683  16.43291  -47.53534  0.00168001   0.112129
13.65410  13.69240   25.7385  16.64721  -47.32354  0.00166507   0.090125
13.66560  13.62310   25.8087  16.85154  -47.10342  0.00164962   0.068444
13.67710  13.55380   25.8790  17.05006  -46.87916  0.00163394   0.046925
13.68930  13.48460   25.9492  17.24858  -46.64991  0.00161800   0.025118
13.70140  13.41540   26.0195  17.44710  -46.41401  0.00160168   0.002975
13.71430  13.34620   26.0899  17.64977  -46.17064  0.00158493  -0.019849
13.72710  13.27710   26.1602  17.83499  -45.92395  0.00156804  -0.041536
13.74070  13.20800   26.2306  18.03600  -45.67144  0.00155084  -0.064762
13.75420  13.13890   26.3010  18.21292  -45.41312  0.00153335  -0.086350
13.76850  13.06980   26.3716  18.39068  -45.14898  0.00151556  -0.108267
13.78280  13.00080   26.4420  18.56760  -44.88069  0.00149760  -0.130329
13.79780  12.93190   26.5125  18.74369  -44.60410  0.00147920  -0.152648
13.81280  12.86290   26.5831  18.91064  -44.32418  0.00146069  -0.174384
13.82850  12.79400   26.6538  19.09255  -44.03845  0.00144192  -0.197618
13.84430  12.72520   26.7244  19.25120  -43.74773  0.00142295  -0.219101
13.86080  12.65640   26.7952  19.40984  -43.45203  0.00140378  -0.240779
13.87720  12.58760   26.8659  19.56849  -43.15135  0.00138442  -0.262647
13.89450  12.51890   26.9367  19.72548  -42.84236  0.00136466  -0.284650
13.91180  12.45020   27.0076  19.87416  -42.53171  0.00134494  -0.306014
13.92980  12.38160   27.0785  20.03945  -42.21442  0.00132495  -0.329066
13.94790  12.31300   27.1494  20.17899  -41.89214  0.00130480  -0.350004
13.96680  12.24460   27.2204  20.31937  -41.56487  0.00128449  -0.371168
13.98560  12.17610   27.2914  20.45974  -41.23263  0.00126404  -0.392482
14.00530  12.10770   27.3626  20.59762  -40.89374  0.00124334  -0.413756
14.02500  12.03930   27.4338  20.72803  -40.55152  0.00122262  -0.434442
14.04560  11.97110   27.5050  20.87422  -40.20349  0.00120173  -0.456733
14.06620  11.90280   27.5764  20.99466  -39.85131  0.00118076  -0.476753
14.08760  11.83470   27.6478  21.11593  -39.49332  0.00115964  -0.496981
14.10900  11.76660   27.7191  21.23637  -39.13200  0.00113852  -0.517197
14.13140  11.69870   27.7906  21.35182  -38.76237  0.00111712  -0.537126
14.15370  11.63070   27.8622  21.46396  -38.39026  0.00109577  -0.556773
14.17700  11.56290   27.9339  21.60765  -38.01150  0.00107426  -0.579564
14.20020  11.49510   28.0056  21.70816  -37.62941  0.00105277  -0.598280
14.22440  11.42740   28.0775  21.81448  -37.24068  0.00103113  -0.617666
14.24870  11.35980   28.1493  21.90917  -36.84863  0.00100953  -0.635956
14.27390  11.29230   28.2213  22.00552  -36.45160  0.00098790  -0.654465
14.29910  11.22480   28.2934  22.10187  -36.04958  0.00096622  -0.673029
14.32540  11.15750   28.3657  22.18659  -35.64092  0.00094444  -0.690539
14.35160  11.09030   28.4378  22.27381  -35.22976  0.00092278  -0.708276
14.37890  11.02320   28.5102  22.39009  -34.81196  0.00090102  -0.728966
14.40620  10.95610   28.5827  22.46485  -34.39001  0.00087931  -0.745562
14.43470  10.88930   28.6553  22.56120  -33.96058  0.00085749  -0.764386
14.46310  10.82240   28.7280  22.62848  -33.52949  0.00083586  -0.780256
14.49270  10.75580   28.8008  22.70324  -33.09093  0.00081413  -0.796937
14.52220  10.68920   28.8737  22.76304  -32.64987  0.00079258  -0.812065
14.55300  10.62290   28.9468  22.82617  -32.20300  0.00077103  -0.827540
14.58380  10.55660   29.0199  22.88846  -31.75197  0.00074958  -0.842905
14.61590  10.49060   29.0933  22.93498  -31.29347  0.00072809  -0.856705
14.64790  10.42450   29.1667  22.98731  -30.83331  0.00070683  -0.871005
14.68130  10.35880   29.2404  23.07037  -30.36401  0.00068548  -0.888496
14.71460  10.29310   29.3141  23.11024  -29.89305  0.00066438  -0.901487
14.74940  10.22770   29.3882  23.16672  -29.41296  0.00064321  -0.916218
14.78410  10.16240   29.4621  23.20078  -28.93203  0.00062235  -0.928528
14.82030  10.09740   29.5365  23.24978  -28.44113  0.00060141  -0.942415
14.85660  10.03250   29.6109  23.27719  -27.94941  0.00058080  -0.953949
14.89430   9.96793   29.6856  23.31955  -27.44855  0.00056017  -0.967036
14.93210   9.90340   29.7604  23.33866  -26.94603  0.00053984  -0.977596
14.97150   9.83934   29.8356  23.37521  -26.43270  0.00051947  -0.989983
15.01080   9.77529   29.9108  23.38766  -25.91938  0.00049949  -0.999716
15.05200   9.71178   29.9865  23.41674  -25.39526  0.00047949  -1.011177
15.09310   9.64826   30.0621  23.42172  -24.87032  0.00045988  -1.019983
15.13600   9.58535   30.1383  23.44498  -24.33374  0.00044025  -1.030690
15.17900   9.52243   30.2145  23.44165  -23.79633  0.00042102  -1.038471
15.22390   9.46020   30.2912  23.45910  -23.24729  0.00040181  -1.048397
15.26880   9.39797   30.3680  23.44830  -22.69825  0.00038306  -1.055200
15.31590   9.33651   30.4454  23.45910  -22.13593  0.00036431  -1.064242
15.36290   9.27504   30.5228  23.44082  -21.57360  0.00034604  -1.070067
15.41220   9.21446   30.6009  23.44498  -20.99715  0.00032779  -1.078207
15.46150   9.15388   30.6790  23.41840  -20.42070  0.00031004  -1.082950
15.51330   9.09431   30.7579  23.41757  -19.82930  0.00029234  -1.090342
15.56500   9.03474   30.8368  23.38185  -19.23874  0.00027519  -1.093891
15.61940   8.97634   30.9166  23.37022  -18.63156  0.00025809  -1.099911
15.67380   8.91794   30.9964  23.32122  -18.02521  0.00024157  -1.101829
15.73110   8.86090   31.0773  23.37354  -17.39975  0.00022509  -1.114199
15.78840   8.80387   31.1581  23.31540  -16.77513  0.00020922  -1.114896
15.84880   8.74845   31.2401  23.27304  -16.13555  0.00019357  -1.117140
15.90920   8.69302   31.3221  23.23483  -15.49432  0.00017849  -1.119578
15.97300   8.63950   31.4054  23.19330  -14.83066  0.00016353  -1.121633
16.03680   8.58598   31.4886  23.14097  -14.16948  0.00014927  -1.122289
16.10430   8.53475   31.5734  23.17586  -13.48007  0.00013510  -1.131855
16.17180   8.48352   31.6581  23.09695  -12.79565  0.00012173  -1.129422
16.24340   8.43506   31.7446  23.04711  -12.09128  0.00010870  -1.129839
16.31490   8.38659   31.8310  23.00724  -11.38360  0.00009635  -1.130993
16.39080   8.34148   31.9192  22.93581  -10.64850  0.00008431  -1.128817
16.46670   8.29638   32.0075  22.88597   -9.91673  0.00007312  -1.128490
16.54710   8.25539   32.0978  22.89262   -9.14758  0.00006221  -1.133770
16.62760   8.21440   32.1881  22.79793   -8.38839  0.00005232  -1.128375
16.71280   8.17844   32.2806  22.79627   -7.59806  0.00004292  -1.132177
16.79810   8.14249   32.3732  22.70822   -6.81056  0.00003449  -1.126873
16.88800   8.11265   32.4679  22.69078   -5.99697  0.00002674  -1.128394
16.97790   8.08282   32.5626  22.69991   -5.18080  0.00001996  -1.132178
17.07200   8.06030   32.6594  22.59443   -4.32510  0.00001391  -1.124157
17.16610   8.03777   32.7561  22.52299   -3.48635  0.00000904  -1.119081
17.26350   8.02369   32.8545  22.54210   -2.61561  0.00000509  -1.122656
17.36090   8.00960   32.9529  22.49143   -1.75709  0.00000230  -1.118785
17.46010   8.00480   33.0523  22.51136   -0.87373  0.00000057  -1.121501
17.55930   8.00000   33.1516  22.48395   -0.00441  0.00000000  -1.119010
17.66040   8.00499   33.2528  22.51469    0.89790  0.00000060  -1.121818
17.76150   8.00998   33.3540  22.51386    1.78425  0.00000237  -1.120989
17.86070   8.02461   33.4543  22.50057    2.67093  0.00000530  -1.118423
17.96000   8.03923   33.5547  22.68164    3.55869  0.00000942  -1.134796
18.05570   8.06259   33.6532  22.62765    4.41655  0.00001450  -1.127231
18.15150   8.08595   33.7518  22.60522    5.27026  0.00002065  -1.122388
18.24280   8.11683   33.8482  22.66586    6.09822  0.00002765  -1.125507
18.33420   8.14771   33.9446  22.82035    6.93673  0.00003578  -1.137629
18.42070   8.18487   34.0388  22.81205    7.73935  0.00004453  -1.133089
18.50710   8.22202   34.1328  22.82451    8.53874  0.00005421  -1.130260
18.58870   8.26431   34.2247  22.89345    9.31038  0.00006445  -1.132910
18.67020   8.30660   34.3166  22.93332   10.08867  0.00007567  -1.132211
18.74700   8.35306   34.4063  22.96737   10.83207  0.00008724  -1.130785
18.82380   8.39952   34.4961  23.00807   11.57879  0.00009968  -1.129670
18.89610   8.44939   34.5839  23.04711   12.29561  0.00011240  -1.128273
18.96840   8.49926   34.6717  23.09446   13.00994  0.00012584  -1.127430
19.03660   8.55191   34.7579  23.17087   13.70351  0.00013962  -1.129435
19.10480   8.60457   34.8441  23.15426   14.40123  0.00015420  -1.121571
19.16920   8.65952   34.9287  23.20161   15.07153  0.00016889  -1.120223
19.23360   8.71447   35.0134  23.23815   15.74433  0.00018430  -1.117466
19.29450   8.77135   35.0967  23.27968   16.39388  0.00019982  -1.115185
19.35540   8.82822   35.1800  23.31291   17.04591  0.00021603  -1.111761
19.41310   8.88670   35.2622  23.34447   17.67718  0.00023233  -1.108135
19.47080   8.94519   35.3444  23.37853   18.30678  0.00024917  -1.104540
19.52560   9.00504   35.4255  23.42504   18.92227  0.00026621  -1.102160
19.58040   9.06490   35.5067  23.37687   19.53859  0.00028383  -1.089722
19.63250   9.12592   35.5869  23.41175   20.13663  0.00030148  -1.085881
19.68450   9.18695   35.6671  23.41175   20.73551  0.00031967  -1.078191
19.73410   9.24899   35.7465  23.43750   21.31860  0.00033791  -1.073158
19.78370   9.31103   35.8259  23.43335   21.90169  0.00035664  -1.064810
19.83100   9.37394   35.9046  23.44996   22.47066  0.00037541  -1.058602
19.87830   9.43686   35.9834  23.43916   23.04047  0.00039469  -1.049335
19.92350   9.50055   36.0615  23.44747   23.59615  0.00041396  -1.042055
19.96860   9.56423   36.1395  23.42920   24.15183  0.00043369  -1.031824
20.01180   9.62860   36.2170  23.42837   24.69505  0.00045342  -1.023401
20.05490   9.69296   36.2945  23.40345   25.23745  0.00047355  -1.012310
20.09620   9.75793   36.3715  23.39763   25.76821  0.00049368  -1.003203
20.13740   9.82289   36.4484  23.34281   26.29814  0.00051420  -0.988862
20.17700   9.88840   36.5249  23.32122   26.81645  0.00053466  -0.977983
20.21650   9.95390   36.6014  23.28633   27.33475  0.00055553  -0.965567
20.25430  10.01990   36.6775  23.27968   27.84309  0.00057638  -0.956070
20.29220  10.08590   36.7536  23.24812   28.34728  0.00059745  -0.943919
20.32850  10.15230   36.8293  23.21988   28.84481  0.00061860  -0.932074
20.36470  10.21870   36.9049  23.17503   29.33986  0.00064002  -0.918419
20.39950  10.28550   36.9802  23.13931   29.82577  0.00066140  -0.905726
20.43430  10.35230   37.0555  23.07203   30.31168  0.00068312  -0.889663
20.46770  10.41940   37.1305  23.02469   30.78763  0.00070474  -0.875697
20.50110  10.48660   37.2055  22.95491   31.26108  0.00072658  -0.859366
20.53320  10.55410   37.2803  22.90342   31.72622  0.00074837  -0.844934
20.56520  10.62150   37.3549  22.80873   32.18805  0.00077031  -0.826080
20.59600  10.68930   37.4293  22.74311   32.64239  0.00079221  -0.810210
20.62680  10.75710   37.5038  22.66503   33.09425  0.00081430  -0.793030
20.65630  10.82510   37.5779  22.60772   33.53863  0.00083631  -0.777985
20.68580  10.89310   37.6521  22.53296   33.97968  0.00085845  -0.761159
20.71420  10.96140   37.7260  22.46070   34.41327  0.00088050  -0.744646
20.74260  11.02970   37.8000  22.37431   34.84436  0.00090270  -0.726694
20.76980  11.09820   37.8737  22.29374   35.26880  0.00092482  -0.709378
20.79710  11.16670   37.9474  22.18742   35.69075  0.00094709  -0.689503
20.82320  11.23540   38.0209  22.09938   36.10440  0.00096917  -0.671542
20.84940  11.30410   38.0945  21.97146   36.51473  0.00099132  -0.649703
20.87450  11.37310   38.1679  21.87179   36.91841  0.00101336  -0.630717
20.89960  11.44200   38.2412  21.75800   37.31876  0.00103546  -0.610390
20.92370  11.51100   38.3143  21.66580   37.71164  0.00105737  -0.592267
20.94770  11.58010   38.3874  21.55782   38.10037  0.00107929  -0.572677
20.97090  11.64940   38.4605  21.45067   38.48412  0.00110114  -0.553243
20.99400  11.71860   38.5335  21.31611   38.86288  0.00112292  -0.531302
21.01610  11.78800   38.6063  21.19899   39.23499  0.00114452  -0.511150
21.03830  11.85740   38.6792  21.06028   39.60545  0.00116624  -0.488999
21.05950  11.92690   38.7518  20.94482   39.96760  0.00118766  -0.469210
21.08080  11.99650   38.8246  20.81525   40.32559  0.00120904  -0.448202
21.10110  12.06620   38.8972  20.68650   40.67777  0.00123025  -0.427413
21.12150  12.13580   38.9697  20.54530   41.02580  0.00125139  -0.405592
21.14100  12.20560   39.0422  20.41240   41.36719  0.00127230  -0.384706
21.16040  12.27540   39.1147  20.24046   41.70525  0.00129318  -0.360412
21.17910  12.34530   39.1870  20.09593   42.03583  0.00131376  -0.338810
21.19770  12.41520   39.2594  19.93562   42.36226  0.00133425  -0.315950
21.21550  12.48520   39.3316  19.79442   42.68288  0.00135452  -0.294965
21.23330  12.55530   39.4039  19.64075   42.99769  0.00137457  -0.273078
21.25030  12.62540   39.4760  19.48792   43.30751  0.00139445  -0.251440
21.26730  12.69550   39.5482  19.30934   43.61151  0.00141410  -0.227803
21.28350  12.76570   39.6202  19.14737   43.90970  0.00143350  -0.205816
21.29970  12.83590   39.6923  18.96297   44.20457  0.00145282  -0.182098
21.31510  12.90620   39.7642  18.79602   44.49197  0.00147177  -0.160135
21.33060  12.97650   39.8362  18.61993   44.77354  0.00149046  -0.137655
21.34520  13.04680   39.9080  18.44467   45.05014  0.00150893  -0.115470
21.35990  13.11720   39.9799  18.25944   45.32092  0.00152713  -0.092734
21.37380  13.18760   40.0517  18.08418   45.58672  0.00154509  -0.071043
21.38780  13.25810   40.1236  17.89646   45.84587  0.00156271  -0.048648
21.40100  13.32860   40.1953  17.70791   46.09921  0.00158003  -0.026471
21.41420  13.39910   40.2670  17.49527   46.34756  0.00159710  -0.002688
21.42660  13.46970   40.3387  17.30091   46.58844  0.00161374   0.019315
21.43910  13.54030   40.4104  17.08163   46.82600  0.00163024   0.042976
21.45090  13.61090   40.4820  16.88311   47.05608  0.00164630   0.064687
21.46260  13.68150   40.5535  16.67462   47.27951  0.00166197   0.086795
21.47370  13.75220   40.6251  16.46531   47.49714  0.00167731   0.108630
21.48480  13.82290   40.6967  16.23024   47.70894  0.00169230   0.131977
21.49520  13.89370   40.7682  16.01262   47.91327  0.00170683   0.153647
21.50560  13.96440   40.8397  15.75596   48.11262  0.00172106   0.177710
21.51530  14.03520   40.9112  15.52173   48.30532  0.00173487   0.199764
21.52500  14.10600   40.9826  15.28500   48.49055  0.00174820   0.221539
21.53400  14.17680   41.0540  15.04745   48.66913  0.00176110   0.242940
21.54300  14.24760   41.1254  14.77417   48.83941  0.00177345   0.266196
21.55150  14.31640   41.1947  14.54243   48.99972  0.00178511   0.286162
21.55990  14.38520   41.2640  14.27165   49.15255  0.00179626   0.308145
21.56840  14.45400   41.3333  14.02247   49.30040  0.00180709   0.328325
21.57680  14.52280   41.4026  13.79737   49.44078  0.00181739   0.346541
21.58530  14.59160   41.4720  13.57227   49.57617  0.00182736   0.364390
21.59370  14.66030   41.5412  13.33638   49.70574  0.00183692   0.382482
21.60210  14.72910   41.6105  13.10546   49.82951  0.00184608   0.399867
21.61060  14.79790   41.6798  12.88452   49.94745  0.00185483   0.416275
21.61900  14.86670   41.7491  12.66358   50.06042  0.00186323   0.432319
21.62750  14.93550   41.8184  12.43599   50.16757  0.00187122   0.448338
21.63590  15.00430   41.8877  12.21006   50.26973  0.00187884   0.463887
21.64440  15.07300   41.9570  11.98662   50.36608  0.00188605   0.478901
21.65280  15.14180   42.0263  11.76319   50.45745  0.00189290   0.493541
21.66130  15.21060   42.0956  11.52646   50.54217  0.00189927   0.508433
21.66970  15.27940   42.1649  11.28558   50.62274  0.00190533   0.523157
21.67820  15.34820   42.2342  11.05135   50.69667  0.00191089   0.537091
21.68660  15.41700   42.3035  10.81712   50.76478  0.00191603   0.550601
21.69500  15.48570   42.3728  10.54966   50.82625  0.00192067   0.565213
21.70350  15.55450   42.4421  10.28552   50.88273  0.00192495   0.579199
21.71190  15.62330   42.5114  10.04464   50.93256  0.00192872   0.591633
21.72140  15.69370   42.5824   9.79712   50.97742  0.00193212   0.603941
21.73080  15.76400   42.6534   9.53797   51.01480  0.00193495   0.616230
21.74180  15.83420   42.7244   9.31038   51.04885  0.00193754   0.626817
21.75280  15.90440   42.7955   9.08196   51.07626  0.00193962   0.636996
21.76540  15.97450   42.8667   8.85769   51.09952  0.00194138   0.646648
21.77800  16.04460   42.9379   8.66499   51.11862  0.00194284   0.654736
21.79220  16.11460   43.0093   8.47395   51.13440  0.00194404   0.662491
21.80640  16.18450   43.0807   8.29204   51.14520  0.00194486   0.669589
21.82220  16.25430   43.1522   8.11437   51.15351  0.00194549   0.676308
21.83800  16.32410   43.2238   7.95340   51.15766  0.00194580   0.682167
21.85550  16.39360   43.2955   7.78022   51.15932  0.00194593   0.688252
21.87290  16.46320   43.3672   7.62007   51.15766  0.00194580   0.693657
21.89200  16.53260   43.4392   7.46217   51.15351  0.00194549   0.698795
21.91120  16.60190   43.5111   7.31516   51.14603  0.00194492   0.703364
21.93190  16.67110   43.5833   7.16515   51.13773  0.00194429   0.707906
21.95270  16.74020   43.6555   7.02685   51.12527  0.00194334   0.711850
21.97520  16.80910   43.7280   6.87892   51.11115  0.00194227   0.715950
21.99770  16.87790   43.8004   6.74195   51.09370  0.00194094   0.719519
22.02190  16.94650   43.8731   6.59975   51.07543  0.00193955   0.723132
22.04610  17.01510   43.9458   6.46435   51.05383  0.00193791   0.726355
22.07210  17.08330   44.0188   6.33129   51.03141  0.00193621   0.729404
22.09810  17.15160   44.0919   6.20429   51.00649  0.00193432   0.732130
22.12580  17.21950   44.1652   6.07687   50.98074  0.00193237   0.734769
22.15360  17.28740   44.2386   5.96117   50.95167  0.00193017   0.736921
22.18310  17.35500   44.3124   5.83442   50.92260  0.00192796   0.739300
22.21270  17.42250   44.3861   5.71140   50.89020  0.00192551   0.741408
22.24410  17.48960   44.4602   5.58623   50.85781  0.00192306   0.743502
22.27550  17.55680   44.5343   5.46853   50.82209  0.00192036   0.745242
22.30880  17.62350   44.6089   5.34875   50.78638  0.00191766   0.746969
22.34210  17.69010   44.6833   5.23280   50.74817  0.00191478   0.748467
22.37740  17.75630   44.7584   5.11901   50.70996  0.00191190   0.749856
22.41260  17.82250   44.8333   5.00812   50.66926  0.00190883   0.751046
22.44980  17.88820   44.9089   4.89823   50.62856  0.00190576   0.752160
22.48700  17.95380   44.9843   4.79390   50.58620  0.00190258   0.753051
22.52630  18.01890   45.0603   4.68368   50.54301  0.00189933   0.753992
22.56550  18.08400   45.1363   4.57778   50.49815  0.00189596   0.754739
22.60680  18.14840   45.2128   4.46988   50.45330  0.00189259   0.755477
22.64810  18.21280   45.2893   4.36597   50.40595  0.00188904   0.756009
22.69160  18.27660   45.3665   4.26040   50.35944  0.00188556   0.756553
22.73500  18.34030   45.4436   4.15823   50.31126  0.00188195   0.756933
22.78060  18.40330   45.5214   4.05515   50.26309  0.00187835   0.757285
22.82620  18.46630   45.5991   3.95473   50.21242  0.00187456   0.757466
22.87410  18.52850   45.6777   3.85755   50.16258  0.00187084   0.757575
22.92200  18.59070   45.7562   3.76186   50.11108  0.00186700   0.757567
22.97210  18.65200   45.8353   3.66485   50.06125  0.00186329   0.757593
23.02230  18.71320   45.9145   3.56841   50.00809  0.00185934   0.757466
23.07480  18.77350   45.9944   3.47364   49.95742  0.00185557   0.757352
23.12740  18.83380   46.0745   3.37895   49.90426  0.00185162   0.757121
23.18230  18.89300   46.1552   3.28102   49.85193  0.00184774   0.756924
23.23730  18.95220   46.2360   3.17802   49.79794  0.00184374   0.756707
23.29480  19.01030   46.3177   3.08798   49.74561  0.00183987   0.756319
23.35230  19.06830   46.3994   3.00102   49.69079  0.00183582   0.755779
23.41230  19.12500   46.4820   2.91015   49.63846  0.00183195   0.755335
23.47240  19.18180   46.5647   2.81969   49.58364  0.00182791   0.754773
23.53510  19.23710   46.6483   2.73073   49.53131  0.00182405   0.754237
23.59780  19.29240   46.7319   2.64310   49.47649  0.00182002   0.753574
23.66320  19.34610   46.8165   2.55423   49.42417  0.00181617   0.752971
23.72870  19.39980   46.9012   2.45887   49.37018  0.00181220   0.752353
23.79690  19.45180   46.9869   2.37216   49.31951  0.00180849   0.751709
23.86510  19.50390   47.0728   2.28594   49.26552  0.00180453   0.750926
23.93610  19.55400   47.1597   2.20097   49.21485  0.00180082   0.750203
24.00720  19.60410   47.2466   2.11774   49.16252  0.00179699   0.749381
24.08110  19.65200   47.3347   2.03194   49.11351  0.00179341   0.748656
24.15510  19.70000   47.4229   1.93874   49.06202  0.00178965   0.747887
24.23200  19.74570   47.5124   1.85535   49.01467  0.00178620   0.747128
24.30890  19.79140   47.6018   1.77237   48.96483  0.00178257   0.746261
24.38870  19.83450   47.6925   1.69039   48.91915  0.00177924   0.745484
24.46850  19.87760   47.7832   1.61430   48.87181  0.00177580   0.744586
24.55130  19.91790   47.8753   1.52983   48.82861  0.00177266   0.743849
24.63410  19.95820   47.9674   1.44560   48.78376  0.00176941   0.743028
24.71970  19.99550   48.0608   1.36204   48.74389  0.00176652   0.742326
24.80540  20.03270   48.1542   1.28297   48.70153  0.00176345   0.741492
24.89390  20.06650   48.2489   1.20223   48.66498  0.00176080   0.740818
24.98230  20.10030   48.3436   1.12166   48.62594  0.00175798   0.740039
25.07350  20.13050   48.4396   1.04159   48.59355  0.00175564   0.739433
25.16460  20.16060   48.5356   0.96169   48.55783  0.00175306   0.738697
25.25820  20.18680   48.6328   0.88394   48.53042  0.00175108   0.738179
25.35180  20.21300   48.7300   0.80584   48.49886  0.00174880   0.737509
25.44760  20.23490   48.8282   0.71508   48.47560  0.00174713   0.737106
25.54340  20.25680   48.9265   0.63088   48.44902  0.00174521   0.736547
25.64110  20.27410   49.0257   0.55227   48.43075  0.00174389   0.736197
25.73880  20.29150   49.1250   0.47385   48.40915  0.00174234   0.735718
25.83800  20.30410   49.2250   0.39566   48.39586  0.00174138   0.735465
25.93710  20.31660   49.3249   0.31764   48.37925  0.00174019   0.735083
26.03730  20.32430   49.4254   0.23912   48.37260  0.00173971   0.734977
26.13750  20.33190   49.5258   0.16231   48.36181  0.00173893   0.734718
26.23820  20.33440   49.6266   0.08105   48.36098  0.00173887   0.734736
26.33890  20.33700   49.7273   0.00407   48.35682  0.00173857   0.734624
26.43960  20.33440   49.8280   0.07960   48.36098  0.00173887   0.734737
26.54030  20.33190   49.9288   0.15950   48.36264  0.00173899   0.734745
26.64050  20.32430   50.0293   0.24022   48.37260  0.00173971   0.734976
26.74070  20.31660   50.1298   0.32010   48.38008  0.00174025   0.735104
26.83990  20.30410   50.2297   0.39857   48.39586  0.00174138   0.735459
26.93900  20.29150   50.3296   0.47594   48.40832  0.00174228   0.735689
27.03670  20.27410   50.4289   0.55611   48.42992  0.00174383   0.736162
27.13440  20.25680   50.5281   0.63486   48.44819  0.00174515   0.736511
27.23020  20.23490   50.6264   0.71390   48.47477  0.00174707   0.737084
27.32600  20.21300   50.7246   0.79312   48.49886  0.00174880   0.737554
27.41960  20.18680   50.8218   0.87489   48.52959  0.00175102   0.738189
27.51320  20.16060   50.9190   0.95571   48.55783  0.00175306   0.738723
27.60440  20.13050   51.0151   1.04384   48.59355  0.00175564   0.739423
27.69550  20.10030   51.1110   1.12374   48.62594  0.00175798   0.740029
27.78400  20.06650   51.2058   1.20398   48.66498  0.00176080   0.740809
27.87240  20.03270   51.3004   1.28438   48.70153  0.00176345   0.741484
27.95810  19.99550   51.3938   1.36146   48.74389  0.00176652   0.742329
28.04370  19.95820   51.4872   1.44502   48.78376  0.00176941   0.743031
28.12650  19.91790   51.5793   1.52933   48.82944  0.00177272   0.743877
28.20930  19.87760   51.6714   1.61397   48.87181  0.00177580   0.744589
28.28910  19.83450   51.7621   1.69305   48.91998  0.00177930   0.745490
28.36890  19.79140   51.8528   1.77810   48.96483  0.00178257   0.746216
28.44580  19.74570   51.9422   1.86415   49.01467  0.00178620   0.747056
28.52270  19.70000   52.0317   1.95054   49.06202  0.00178965   0.747785
28.59670  19.65200   52.1199   2.02762   49.11268  0.00179335   0.748669
28.67060  19.60410   52.2080   2.11159   49.16169  0.00179693   0.749413
28.74170  19.55400   52.2949   2.19681   49.21485  0.00180082   0.750243
28.81270  19.50390   52.3818   2.28245   49.26552  0.00180453   0.750962
28.88100  19.45180   52.4677   2.37714   49.31868  0.00180843   0.751631
28.94920  19.39980   52.5535   2.46510   49.37018  0.00181220   0.752285
29.01460  19.34610   52.6381   2.55215   49.42417  0.00181617   0.752994
29.08000  19.29240   52.7227   2.63995   49.47649  0.00182002   0.753611
29.14270  19.23710   52.8063   2.72907   49.53131  0.00182405   0.754257
29.20540  19.18180   52.8900   2.81870   49.58364  0.00182791   0.754786
29.26550  19.12500   52.9726   2.90425   49.63846  0.00183195   0.755411
29.32560  19.06830   53.0553   2.99296   49.69079  0.00183582   0.755886
29.38300  19.01030   53.1369   3.09421   49.74561  0.00183987   0.756234
29.44050  18.95220   53.2186   3.19031   49.79794  0.00184374   0.756533
29.49550  18.89300   53.2994   3.28376   49.85193  0.00184774   0.756885
29.55050  18.83380   53.3802   3.37704   49.90343  0.00185156   0.757123
29.60300  18.77350   53.4602   3.47181   49.95742  0.00185557   0.757380
29.65550  18.71320   53.5401   3.56717   50.00809  0.00185934   0.757486
29.70570  18.65200   53.6193   3.66102   50.06125  0.00186329   0.757655
29.75580  18.59070   53.6985   3.75630   50.11108  0.00186700   0.757659
29.80370  18.52850   53.7770   3.85464   50.16341  0.00187091   0.757651
29.85160  18.46630   53.8555   3.95556   50.21242  0.00187456   0.757452
29.89720  18.40330   53.9332   4.05565   50.26309  0.00187835   0.757276
29.94280  18.34030   54.0110   4.15906   50.31126  0.00188195   0.756918
29.98620  18.27660   54.0881   4.26056   50.36027  0.00188562   0.756576
30.02970  18.21280   54.1653   4.36622   50.40678  0.00188910   0.756031
30.07100  18.14840   54.2418   4.46963   50.45330  0.00189259   0.755482
30.11230  18.08400   54.3183   4.57761   50.49815  0.00189596   0.754742
30.15150  18.01890   54.3943   4.68310   50.54384  0.00189939   0.754030
30.19080  17.95380   54.4704   4.79365   50.58620  0.00190258   0.753057
30.22800  17.88820   54.5458   4.90155   50.62939  0.00190583   0.752115
30.26520  17.82250   54.6213   5.01468   50.67009  0.00190889   0.750927
30.30040  17.75630   54.6962   5.12507   50.70996  0.00191190   0.749719
30.33570  17.69010   54.7713   5.24086   50.74817  0.00191478   0.748280
30.36900  17.62350   54.8457   5.35017   50.78638  0.00191766   0.746936
30.40230  17.55680   54.9203   5.46629   50.82209  0.00192036   0.745296
30.43370  17.48960   54.9945   5.58307   50.85698  0.00192300   0.743554
30.46510  17.42250   55.0685   5.70368   50.89020  0.00192551   0.741603
30.49470  17.35500   55.1422   5.82652   50.92260  0.00192796   0.739503
30.52430  17.28740   55.2160   5.95004   50.95167  0.00193017   0.737214
30.55200  17.21950   55.2894   6.07770   50.98074  0.00193237   0.734746
30.57980  17.15160   55.3627   6.21044   51.00732  0.00193438   0.731987
30.60570  17.08330   55.4358   6.33528   51.03224  0.00193627   0.729319
30.63170  17.01510   55.5088   6.46776   51.05467  0.00193798   0.726284
30.65590  16.94650   55.5815   6.59775   51.07543  0.00193955   0.723191
30.68010  16.87790   55.6543   6.73597   51.09370  0.00194094   0.719698
30.70260  16.80910   55.7266   6.87642   51.11115  0.00194227   0.716026
30.72510  16.74020   55.7991   7.01763   51.12444  0.00194328   0.712110
30.74590  16.67110   55.8713   7.16714   51.13773  0.00194429   0.707842
30.76670  16.60190   55.9435   7.32138   51.14686  0.00194498   0.703189
30.78580  16.53260   56.0154   7.46583   51.15434  0.00194555   0.698701
30.80490  16.46320   56.0874   7.62348   51.15766  0.00194580   0.693543
30.82230  16.39360   56.1592   7.77689   51.15932  0.00194593   0.688366
30.83980  16.32410   56.2308   7.94318   51.15766  0.00194580   0.682526
30.85560  16.25430   56.3024   8.11180   51.15351  0.00194549   0.676400
30.87140  16.18450   56.3740   8.28083   51.14520  0.00194486   0.670000
30.88560  16.11460   56.4453   8.47312   51.13523  0.00194410   0.662549
30.89980  16.04460   56.5167   8.66416   51.11945  0.00194290   0.654795
30.91240  15.97450   56.5879   8.85686   51.10035  0.00194145   0.646708
30.92500  15.90440   56.6592   9.05040   51.07626  0.00193962   0.638263
30.93600  15.83420   56.7302   9.31536   51.04968  0.00193760   0.626638
30.94700  15.76400   56.8013   9.53880   51.01563  0.00193501   0.616221
30.95650  15.69370   56.8722   9.80210   50.97742  0.00193212   0.603724
30.96590  15.62330   56.9432  10.04547   50.93256  0.00192872   0.591596
30.97430  15.55450   57.0125  10.31044   50.88356  0.00192501   0.578090
30.98280  15.48570   57.0819  10.55381   50.82708  0.00192074   0.565045
30.99120  15.41700   57.1511  10.79801   50.76561  0.00191609   0.551542
30.99970  15.34820   57.2204  11.04055   50.69750  0.00191096   0.537646
31.00810  15.27940   57.2897  11.29887   50.62274  0.00190533   0.522493
31.01660  15.21060   57.3590  11.52646   50.54301  0.00189933   0.508459
31.02500  15.14180   57.4283  11.75405   50.45745  0.00189290   0.494017
31.03340  15.07300   57.4977  11.97998   50.36691  0.00188612   0.479279
31.04190  15.00430   57.5669  12.21671   50.27056  0.00187891   0.463554
31.05030  14.93550   57.6362  12.43765   50.16840  0.00187128   0.448273
31.05880  14.86670   57.7055  12.66690   50.06125  0.00186329   0.432159
31.06720  14.79790   57.7748  12.88784   49.94828  0.00185489   0.416112
31.07570  14.72910   57.8441  13.10879   49.83034  0.00184614   0.399700
31.08410  14.66030   57.9135  13.32890   49.70574  0.00183692   0.382923
31.09260  14.59160   57.9827  13.57144   49.57700  0.00182742   0.364465
31.10100  14.52280   58.0520  13.79903   49.44161  0.00181745   0.346465
31.10950  14.45400   58.1213  14.02662   49.30040  0.00180709   0.328067
31.11790  14.38520   58.1906  14.25255   49.15338  0.00179632   0.309377
31.12630  14.31640   58.2599  14.53911   48.99972  0.00178511   0.286376
31.13480  14.24760   58.3293  14.77583   48.84024  0.00177351   0.266113
31.14380  14.17680   58.4006  15.01837   48.66913  0.00176110   0.244875
31.15290  14.10600   58.4720  15.26008   48.49138  0.00174826   0.223250
31.16260  14.03520   58.5435  15.53834   48.30449  0.00173481   0.198597
31.17230  13.96440   58.6149  15.76593   48.11262  0.00172106   0.177014
31.18260  13.89370   58.6864  15.99269   47.91494  0.00170695   0.155110
31.19300  13.82290   58.7579  16.21862   47.71060  0.00169242   0.132862
31.20410  13.75220   58.8295  16.46032   47.49714  0.00167731   0.108993
31.21520  13.68150   58.9011  16.66964   47.27951  0.00166197   0.087163
31.22690  13.61090   58.9726  16.89806   47.05525  0.00164624   0.063544
31.23870  13.54030   59.0442  17.10073   46.82600  0.00163024   0.041530
31.25120  13.46970   59.1159  17.30257   46.59010  0.00161386   0.019237
31.26370  13.39910   59.1876  17.50441   46.34839  0.00159716  -0.003372
31.27690  13.32860   59.2593  17.69296   46.09921  0.00158003  -0.025299
31.29000  13.25810   59.3310  17.88068   45.84670  0.00156277  -0.047375
31.30400  13.18760   59.4029  18.06840   45.58755  0.00154515  -0.069757
31.31790  13.11720   59.4747  18.25612   45.32258  0.00152724  -0.092418
31.33260  13.04680   59.5466  18.44716   45.05014  0.00150893  -0.115674
31.34720  12.97650   59.6184  18.62159   44.77437  0.00149052  -0.137768
31.36270  12.90620   59.6904  18.81346   44.49197  0.00147177  -0.161587
31.37810  12.83590   59.7624  18.97958   44.20457  0.00145282  -0.183493
31.39430  12.76570   59.8344  19.14654   43.91136  0.00143361  -0.205700
31.41050  12.69550   59.9064  19.31266   43.61317  0.00141421  -0.228041
31.42750  12.62540   59.9786  19.47795   43.30751  0.00139445  -0.250581
31.44450  12.55530   60.0507  19.63411   42.99852  0.00137463  -0.272478
31.46230  12.48520   60.1230  19.80605   42.68288  0.00135452  -0.295985
31.48010  12.41520   60.1953  19.95224   42.36310  0.00133430  -0.317394
31.49870  12.34530   60.2676  20.09925   42.03666  0.00131381  -0.339084
31.51740  12.27540   60.3400  20.24627   41.70608  0.00129323  -0.360911
31.53690  12.20560   60.4124  20.38831   41.36802  0.00127235  -0.382509
31.55630  12.13580   60.4849  20.52619   41.02746  0.00125149  -0.403812
31.57670  12.06620   60.5574  20.69231   40.67861  0.00123030  -0.427924
31.59700  11.99650   60.6300  20.81940   40.32642  0.00120909  -0.448564
31.61830  11.92690   60.7028  20.95396   39.96843  0.00118771  -0.470037
31.63950  11.85740   60.7754  21.07606   39.60545  0.00116624  -0.490471
31.66170  11.78800   60.8483  21.19899   39.23749  0.00114467  -0.511088
31.68380  11.71860   60.9211  21.32192   38.86454  0.00112301  -0.531810
31.70700  11.64940   60.9941  21.43987   38.48412  0.00110114  -0.552218
31.73010  11.58010   61.0672  21.55117   38.10120  0.00107933  -0.572023
31.75420  11.51100   61.1404  21.67909   37.71164  0.00105737  -0.593542
31.77830  11.44200   61.2134  21.77876   37.31876  0.00103546  -0.612391
31.80340  11.37310   61.2868  21.88010   36.91924  0.00101341  -0.631502
31.82850  11.30410   61.3602  21.98143   36.51639  0.00099141  -0.650634
31.85460  11.23540   61.4337  22.07197   36.10523  0.00096921  -0.668843
31.88080  11.16670   61.5072  22.16500   35.69242  0.00094717  -0.687264
31.90800  11.09820   61.5809  22.28793   35.27129  0.00092495  -0.708749
31.93520  11.02970   61.6546  22.36850   34.84768  0.00090287  -0.726045
31.96360  10.96140   61.7286  22.46900   34.41493  0.00088059  -0.745436
31.99200  10.89310   61.8026  22.54127   33.98052  0.00085849  -0.761970
32.02150  10.82510   61.8767  22.62101   33.53946  0.00083635  -0.779298
32.05110  10.75710   61.9508  22.68579   33.09508  0.00081434  -0.795098
32.08180  10.68930   62.0253  22.75307   32.64405  0.00079229  -0.811180
32.11260  10.62150   62.0997  22.82035   32.18971  0.00077039  -0.827221
32.14460  10.55410   62.1744  22.87102   31.72705  0.00074841  -0.841636
32.17670  10.48660   62.2491  22.92916   31.26274  0.00072666  -0.856718
32.21010  10.41940   62.3241  23.01638   30.78929  0.00070482  -0.874818
32.24350  10.35230   62.3991  23.06040   30.31417  0.00068323  -0.888428
32.27830  10.28550   62.4744  23.12021   29.82993  0.00066158  -0.903692
32.31310  10.21870   62.5497  23.15841   29.34401  0.00064020  -0.916639
32.34940  10.15230   62.6254  23.21074   28.84814  0.00061875  -0.931075
32.38560  10.08590   62.7010  23.24231   28.35143  0.00059762  -0.943246
32.42350  10.01990   62.7771  23.28799   27.84475  0.00057645  -0.956897
32.46140   9.95390   62.8532  23.31125   27.33725  0.00055563  -0.968094
32.50090   9.88840   62.9297  23.35029   26.81894  0.00053476  -0.980944
32.54040   9.82289   63.0062  23.36607   26.29981  0.00051426  -0.991240
32.58160   9.75793   63.0832  23.39763   25.76987  0.00049374  -1.003176
32.62290   9.69296   63.1601  23.40594   25.23911  0.00047362  -1.012542
32.66610   9.62860   63.2377  23.43086   24.69672  0.00045348  -1.023634
32.70920   9.56423   63.3151  23.43169   24.15349  0.00043375  -1.032057
32.75430   9.50055   63.3932  23.44996   23.59781  0.00041402  -1.042289
32.79950   9.43686   63.4713  23.44332   23.04213  0.00039475  -1.049742
32.84680   9.37394   63.5500  23.45494   22.47316  0.00037550  -1.059085
32.89410   9.31103   63.6287  23.44082   21.90418  0.00035672  -1.065551
32.94370   9.24899   63.7081  23.44498   21.32026  0.00033796  -1.073911
32.99330   9.18695   63.7875  23.42338   20.73717  0.00031973  -1.079375
33.04540   9.12592   63.8678  23.42172   20.13912  0.00030155  -1.086883
33.09750   9.06490   63.9480  23.39265   19.54025  0.00028388  -1.091336
33.15220   9.00504   64.0291  23.38434   18.92559  0.00026630  -1.097903
33.20700   8.94519   64.1103  23.34696   18.31177  0.00024931  -1.101218
33.26470   8.88670   64.1924  23.33118   17.67884  0.00023237  -1.106743
33.32240   8.82822   64.2746  23.28633   17.04757  0.00021607  -1.109002
33.38340   8.77135   64.3580  23.26390   16.39637  0.00019988  -1.113533
33.44430   8.71447   64.4413  23.20825   15.74682  0.00018436  -1.114367
33.50860   8.65952   64.5259  23.25144   15.07236  0.00016890  -1.125340
33.57300   8.60457   64.6105  23.17835   14.40123  0.00015420  -1.124042
33.64120   8.55191   64.6967  23.12851   13.71015  0.00013975  -1.125036
33.70940   8.49926   64.7829  23.08615   13.01825  0.00012600  -1.126513
33.78170   8.44939   64.8707  23.03798   12.29811  0.00011245  -1.127322
33.85400   8.39952   64.9585  22.98897   11.58211  0.00009974  -1.127700
33.93080   8.35306   65.0483  22.98399   10.83207  0.00008724  -1.132475
34.00760   8.30660   65.1380  22.89760   10.08867  0.00007567  -1.128587
34.08910   8.26431   65.2299  22.85524    9.32035  0.00006459  -1.128982
34.17070   8.22202   65.3218  22.82866    8.54870  0.00005433  -1.130626
34.25720   8.18487   65.4159  22.78879    7.73761  0.00004451  -1.130750
34.34360   8.14771   65.5100  22.70573    6.93756  0.00003578  -1.126074
34.43500   8.11683   65.6064  22.69493    6.10304  0.00002769  -1.128408
34.52630   8.08595   65.7028  22.61768    5.27433  0.00002068  -1.123622
34.62210   8.06259   65.8014  22.62516    4.42037  0.00001453  -1.126971
34.71790   8.03923   65.9000  22.66586    3.56293  0.00000944  -1.133202
34.81710   8.02461   66.0003  22.50555    2.67267  0.00000531  -1.118917
34.91630   8.00998   66.1006  22.49641    1.79837  0.00000240  -1.119235
35.01740   8.00499   66.2018  22.49891    0.89906  0.00000060  -1.120245
35.11850   8.00000   66.3030  22.50887    0.01242  0.00000000  -1.121492
35.21970   8.00499   66.4043  22.49807   -0.88942  0.00000059  -1.120168
35.32080   8.00998   66.5056  22.53296   -1.77602  0.00000235  -1.122903
35.42000   8.02461   66.6058  22.50555   -2.66304  0.00000527  -1.118933
35.51920   8.03923   66.7061  22.66337   -3.55354  0.00000939  -1.132973
35.61500   8.06259   66.8047  22.62267   -4.41091  0.00001447  -1.126748
35.71080   8.08595   66.9033  22.61519   -5.26478  0.00002061  -1.123404
35.80210   8.11683   66.9997  22.69244   -6.09340  0.00002761  -1.128194
35.89350   8.14771   67.0962  22.79876   -6.92252  0.00003563  -1.135510
35.97990   8.18487   67.1902  22.78630   -7.72781  0.00004440  -1.130546
36.06640   8.22202   67.2844  22.82368   -8.53874  0.00005421  -1.130176
36.14790   8.26431   67.3762  22.85109   -9.31038  0.00006445  -1.128620
36.22950   8.30660   67.4681  22.89345  -10.07870  0.00007552  -1.128230
36.30630   8.35306   67.5579  22.98066  -10.82127  0.00008706  -1.132210
36.38310   8.39952   67.6476  22.98315  -11.57132  0.00009955  -1.127187
36.45540   8.44939   67.7355  23.03299  -12.28814  0.00011227  -1.126891
36.52770   8.49926   67.8233  23.08117  -13.00745  0.00012579  -1.126092
36.59590   8.55191   67.9094  23.12353  -13.70019  0.00013955  -1.124612
36.66410   8.60457   67.9956  23.17337  -14.39043  0.00015397  -1.123628
36.72840   8.65952   68.0802  23.24563  -15.06157  0.00016866  -1.124843
36.79280   8.71447   68.1648  23.20244  -15.73603  0.00018411  -1.113877
36.85370   8.77135   68.2482  23.25809  -16.38474  0.00019960  -1.113054
36.91460   8.82822   68.3315  23.28052  -17.03677  0.00021580  -1.108518
36.97240   8.88670   68.4137  23.32537  -17.66721  0.00023207  -1.106272
37.03010   8.94519   68.4959  23.34032  -18.30014  0.00024899  -1.100665
37.08490   9.00504   68.5770  23.37770  -18.91397  0.00026598  -1.097354
37.13960   9.06490   68.6581  23.38600  -19.52862  0.00028354  -1.090790
37.19170   9.12592   68.7384  23.41508  -20.12666  0.00030118  -1.086352
37.24380   9.18695   68.8186  23.41674  -20.72554  0.00031937  -1.078838
37.29340   9.24899   68.8980  23.43833  -21.30863  0.00033759  -1.073378
37.34300   9.31103   68.9775  23.43335  -21.89172  0.00035632  -1.064947
37.39030   9.37394   69.0562  23.44747  -22.46070  0.00037508  -1.058484
37.43760   9.43686   69.1349  23.43584  -23.02967  0.00039432  -1.049146
37.48270   9.50055   69.2129  23.44249  -23.58535  0.00041358  -1.041698
37.52790   9.56423   69.2910  23.42421  -24.14020  0.00043327  -1.031483
37.57100   9.62860   69.3685  23.42338  -24.68343  0.00045299  -1.023065
37.61420   9.69296   69.4460  23.39846  -25.22582  0.00047312  -1.011978
37.65540   9.75793   69.5229  23.39016  -25.75658  0.00049324  -1.002617
37.69670   9.82289   69.5999  23.35776  -26.28652  0.00051374  -0.990600
37.73620   9.88840   69.6764  23.34198  -26.80565  0.00053423  -0.980310
37.77570   9.95390   69.7529  23.30294  -27.32313  0.00055506  -0.967479
37.81360  10.01990   69.8290  23.27968  -27.83146  0.00057590  -0.956273
37.85140  10.08590   69.9051  23.23400  -28.33731  0.00059703  -0.942643
37.88770  10.15230   69.9807  23.20327  -28.83402  0.00061814  -0.930563
37.92400  10.21870   70.0564  23.15011  -29.32989  0.00063959  -0.916048
37.95880  10.28550   70.1317  23.11190  -29.81497  0.00066092  -0.903122
37.99360  10.35230   70.2071  23.05210  -30.29922  0.00068256  -0.887865
38.02700  10.41940   70.2820  23.00807  -30.77434  0.00070413  -0.874261
38.06040  10.48660   70.3570  22.92086  -31.24779  0.00072597  -0.856169
38.09240  10.55410   70.4318  22.86355  -31.71127  0.00074766  -0.841193
38.12450  10.62150   70.5064  22.79294  -32.17392  0.00076964  -0.824773
38.15530  10.68930   70.5809  22.74477  -32.62827  0.00079153  -0.810667
38.18600  10.75710   70.6553  22.67749  -33.07930  0.00081356  -0.794592
38.21560  10.82510   70.7295  22.61270  -33.52368  0.00083557  -0.778798
38.24510  10.89310   70.8036  22.53296  -33.96473  0.00085770  -0.761479
38.27350  10.96140   70.8776  22.45987  -34.39915  0.00087978  -0.744869
38.30180  11.02970   70.9515  22.36019  -34.83107  0.00090201  -0.725586
38.32910  11.09820   71.0252  22.27879  -35.25468  0.00092408  -0.708216
38.35630  11.16670   71.0989  22.15752  -35.67580  0.00094629  -0.686903
38.38250  11.23540   71.1725  22.06449  -36.08862  0.00096832  -0.668490
38.40860  11.30410   71.2459  21.95817  -36.49894  0.00099046  -0.648772
38.43370  11.37310   71.3194  21.87262  -36.90262  0.00101249  -0.631163
38.45880  11.44200   71.3927  21.77045  -37.30132  0.00103449  -0.611999
38.48290  11.51100   71.4658  21.66912  -37.69503  0.00105644  -0.592979
38.50700  11.58010   71.5390  21.55616  -38.08459  0.00107839  -0.572896
38.53010  11.64940   71.6120  21.44984  -38.46750  0.00110019  -0.553566
38.55320  11.71860   71.6850  21.30033  -38.84710  0.00112201  -0.530198
38.57540  11.78800   71.7578  21.18155  -39.21921  0.00114360  -0.509902
38.59760  11.85740   71.8307  21.04699  -39.58884  0.00116526  -0.488173
38.61880  11.92690   71.9034  20.93236  -39.95099  0.00118668  -0.468472
38.64010  11.99650   71.9761  20.80445  -40.30898  0.00120804  -0.447628
38.66040  12.06620   72.0487  20.67819  -40.66033  0.00122919  -0.427098
38.68080  12.13580   72.1213  20.52453  -41.00836  0.00125032  -0.404154
38.70020  12.20560   72.1937  20.38748  -41.34891  0.00127118  -0.382931
38.71970  12.27540   72.2662  20.22883  -41.68697  0.00129205  -0.359849
38.73830  12.34530   72.3385  20.09427  -42.01839  0.00131267  -0.339123
38.75700  12.41520   72.4109  19.94642  -42.34399  0.00133310  -0.317389
38.77480  12.48520   72.4831  19.79940  -42.66378  0.00135331  -0.295914
38.79260  12.55530   72.5554  19.62746  -42.97941  0.00137341  -0.272417
38.80960  12.62540   72.6276  19.47131  -43.28840  0.00139322  -0.250528
38.82660  12.69550   72.6997  19.29439  -43.59407  0.00141297  -0.227003
38.84280  12.76570   72.7717  19.13906  -43.89226  0.00143236  -0.205593
38.85900  12.83590   72.8438  18.97211  -44.18547  0.00145157  -0.183395
38.87440  12.90620   72.9158  18.80598  -44.47286  0.00147051  -0.161499
38.88980  12.97650   72.9877  18.61494  -44.75527  0.00148924  -0.137758
38.90450  13.04680   73.0595  18.44051  -45.03104  0.00150765  -0.115672
38.91920  13.11720   73.1315  18.24283  -45.30265  0.00152590  -0.091912
38.93310  13.18760   73.2032  18.06258  -45.56761  0.00154380  -0.069862
38.94700  13.25810   73.2751  17.87403  -45.82677  0.00156141  -0.047423
38.96020  13.32860   73.3468  17.68631  -46.07927  0.00157866  -0.025356
38.97340  13.39910   73.4185  17.48614  -46.32763  0.00159572  -0.002561
38.98590  13.46970   73.4902  17.29592  -46.56934  0.00161242   0.019138
38.99840  13.54030   73.5619  17.09325  -46.80523  0.00162880   0.041485
39.01020  13.61090   73.6335  16.89058  -47.03531  0.00164485   0.063514
39.02190  13.68150   73.7051  16.66383  -47.25958  0.00166057   0.087000
39.03300  13.75220   73.7766  16.45451  -47.47637  0.00167584   0.108797
39.04410  13.82290   73.8482  16.21529  -47.68901  0.00169089   0.132453
39.05440  13.89370   73.9197  15.99601  -47.89417  0.00170547   0.154249
39.06480  13.96440   73.9912  15.76676  -48.09269  0.00171963   0.176354
39.07450  14.03520   74.0627  15.53834  -48.28456  0.00173338   0.197992
39.08420  14.10600   74.1341  15.28085  -48.46979  0.00174671   0.221188
39.09330  14.17680   74.2055  15.04412  -48.64837  0.00175960   0.242527
39.10230  14.24760   74.2769  14.75756  -48.81948  0.00177200   0.266670
39.11070  14.31640   74.3462  14.52997  -48.97895  0.00178360   0.286324
39.11920  14.38520   74.4155  14.26417  -49.13179  0.00179475   0.307976
39.12760  14.45400   74.4848  14.01582  -49.27964  0.00180556   0.328094
39.13610  14.52280   74.5541  13.79155  -49.42001  0.00181586   0.346251
39.14450  14.59160   74.6235  13.56646  -49.55540  0.00182583   0.364092
39.15300  14.66030   74.6927  13.33056  -49.68498  0.00183539   0.382177
39.16140  14.72910   74.7620  13.09965  -49.80874  0.00184454   0.399555
39.16990  14.79790   74.8313  12.87954  -49.92669  0.00185329   0.415908
39.17830  14.86670   74.9006  12.65859  -50.03965  0.00186169   0.431946
39.18680  14.93550   74.9699  12.43100  -50.14680  0.00186967   0.447958
39.19520  15.00430   75.0393  12.20425  -50.24897  0.00187729   0.463545
39.20360  15.07300   75.1085  11.98164  -50.34532  0.00188450   0.478508
39.21210  15.14180   75.1778  11.75821  -50.43586  0.00189128   0.493116
39.22050  15.21060   75.2471  11.52148  -50.52141  0.00189770   0.508028
39.22900  15.27940   75.3164  11.28060  -50.60115  0.00190370   0.522719
39.23740  15.34820   75.3857  11.04720  -50.67507  0.00190927   0.536607
39.24590  15.41700   75.4551  10.81213  -50.74318  0.00191440   0.550151
39.25430  15.48570   75.5243  10.54551  -50.80465  0.00191904   0.564717
39.26280  15.55450   75.5936  10.28137  -50.86113  0.00192331   0.578698
39.27120  15.62330   75.6629  10.04049  -50.91097  0.00192708   0.591127
39.28060  15.69370   75.7339   9.79380  -50.95665  0.00193054   0.603420
39.29010  15.76400   75.8049   9.53381  -50.99403  0.00193338   0.615740
39.30110  15.83420   75.8759   9.30706  -51.02809  0.00193596   0.626288
39.31210  15.90440   75.9470   9.07864  -51.05467  0.00193798   0.636437
39.32470  15.97450   76.0182   8.85437  -51.07792  0.00193974   0.646085
39.33730  16.04460   76.0894   8.66167  -51.09703  0.00194119   0.654170
39.35150  16.11460   76.1609   8.47063  -51.11281  0.00194239   0.661922
39.36570  16.18450   76.2322   8.28939  -51.12361  0.00194321   0.668992
39.38150  16.25430   76.3037   8.11172  -51.13274  0.00194391   0.675736
39.39730  16.32410   76.3753   7.95166  -51.13607  0.00194416   0.681534
39.41480  16.39360   76.4470   7.77989  -51.13773  0.00194429   0.687569
39.43220  16.46320   76.5187   7.61933  -51.13607  0.00194416   0.692989
39.45130  16.53260   76.5907   7.46085  -51.13274  0.00194391   0.698172
39.47040  16.60190   76.6626   7.30951  -51.12527  0.00194334   0.702880
39.49120  16.67110   76.7348   7.15800  -51.11613  0.00194265   0.707438
39.51200  16.74020   76.8070   7.02070  -51.10367  0.00194170   0.711347
39.53450  16.80910   76.8795   6.87377  -51.08955  0.00194063   0.715413
39.55700  16.87790   76.9519   6.73331  -51.07211  0.00193930   0.719084
39.58120  16.94650   77.0246   6.59509  -51.05383  0.00193791   0.722575
39.60540  17.01510   77.0974   6.46361  -51.03224  0.00193627   0.725684
39.63140  17.08330   77.1704   6.33154  -51.01064  0.00193464   0.728732
39.65730  17.15160   77.2434   6.21185  -50.98489  0.00193268   0.731230
39.68510  17.21950   77.3168   6.08103  -50.95914  0.00193073   0.733965
39.71280  17.28740   77.3901   5.95502  -50.93090  0.00192859   0.736418
39.74240  17.35500   77.4639   5.82611  -50.90100  0.00192633   0.738823
39.77200  17.42250   77.5376   5.70517  -50.86861  0.00192388   0.740875
39.80340  17.48960   77.6117   5.58182  -50.83621  0.00192143   0.742921
39.83480  17.55680   77.6859   5.46263  -50.80050  0.00191873   0.744695
39.86810  17.62350   77.7604   5.34568  -50.76478  0.00191603   0.746353
39.90140  17.69010   77.8349   5.23205  -50.72657  0.00191315   0.747795
39.93670  17.75630   77.9099   5.11934  -50.68836  0.00191027   0.749161
39.97190  17.82250   77.9849   5.01277  -50.64849  0.00190726   0.750282
40.00910  17.88820   78.0604   4.89989  -50.60779  0.00190420   0.751464
40.04630  17.95380   78.1358   4.79199  -50.56460  0.00190095   0.752406
40.08560  18.01890   78.2118   4.68152  -50.52224  0.00189777   0.753377
40.12480  18.08400   78.2878   4.57595  -50.47739  0.00189440   0.754117
40.16610  18.14840   78.3643   4.46805  -50.43253  0.00189103   0.754855
40.20740  18.21280   78.4408   4.36464  -50.38519  0.00188748   0.755378
40.25090  18.27660   78.5181   4.25907  -50.33867  0.00188400   0.755921
40.29430  18.34030   78.5951   4.15748  -50.28967  0.00188034   0.756264
40.33990  18.40330   78.6729   4.05416  -50.24232  0.00187680   0.756647
40.38550  18.46630   78.7507   3.95407  -50.19165  0.00187301   0.756823
40.43340  18.52850   78.8292   3.85323  -50.14265  0.00186936   0.757021
40.48120  18.59070   78.9076   3.75488  -50.09032  0.00186546   0.757029
40.53140  18.65200   78.9869   3.65961  -50.03965  0.00186169   0.756999
40.58160  18.71320   79.0660   3.56575  -49.98732  0.00185779   0.756856
40.63410  18.77350   79.1460   3.47040  -49.93582  0.00185397   0.756724
40.68660  18.83380   79.2259   3.37571  -49.88267  0.00185002   0.756492
40.74160  18.89300   79.3067   3.28251  -49.83117  0.00184620   0.756252
40.79660  18.95220   79.3875   3.18907  -49.77718  0.00184221   0.755901
40.85410  19.01030   79.4693   3.09297  -49.72485  0.00183833   0.755602
40.91150  19.06830   79.5509   2.99180  -49.67003  0.00183428   0.755253
40.97160  19.12500   79.6335   2.90317  -49.61770  0.00183042   0.754777
41.03170  19.18180   79.7162   2.81762  -49.56288  0.00182638   0.754152
41.09440  19.23710   79.7998   2.72799  -49.51055  0.00182252   0.753624
41.15710  19.29240   79.8834   2.63887  -49.45573  0.00181849   0.752978
41.22250  19.34610   79.9680   2.55116  -49.40340  0.00181464   0.752361
41.28790  19.39980   80.0526   2.46419  -49.34941  0.00181068   0.751651
41.35610  19.45180   80.1384   2.37623  -49.29791  0.00180690   0.750998
41.42440  19.50390   80.2243   2.28162  -49.24475  0.00180301   0.750327
41.49540  19.55400   80.3112   2.19598  -49.19408  0.00179930   0.749609
41.56650  19.60410   80.3982   2.11076  -49.14176  0.00179547   0.748805
41.64040  19.65200   80.4862   2.02687  -49.09192  0.00179183   0.748035
41.71440  19.70000   80.5744   1.94979  -49.04125  0.00178814   0.747152
41.79130  19.74570   80.6639   1.86340  -48.99391  0.00178469   0.746423
41.86810  19.79140   80.7533   1.77744  -48.94407  0.00178106   0.745582
41.94800  19.83450   80.8441   1.69238  -48.89922  0.00177779   0.744857
42.02780  19.87760   80.9348   1.61331  -48.85104  0.00177429   0.743956
42.11060  19.91790   81.0268   1.52875  -48.80868  0.00177122   0.743244
42.19330  19.95820   81.1188   1.44452  -48.76299  0.00176790   0.742398
42.27900  19.99550   81.2123   1.36096  -48.72396  0.00176507   0.741722
42.36470  20.03270   81.3057   1.28388  -48.68076  0.00176195   0.740851
42.45310  20.06650   81.4004   1.20356  -48.64422  0.00175930   0.740176
42.54160  20.10030   81.4951   1.12333  -48.60518  0.00175648   0.739397
42.63270  20.13050   81.5911   1.04350  -48.57278  0.00175414   0.738790
42.72390  20.16060   81.6871   0.96376  -48.53790  0.00175162   0.738080
42.81750  20.18680   81.7843   0.87456  -48.50966  0.00174958   0.737582
42.91110  20.21300   81.8815   0.79289  -48.47809  0.00174731   0.736922
43.00690  20.23490   81.9798   0.71368  -48.45484  0.00174563   0.736478
43.10270  20.25680   82.0781   0.63467  -48.42826  0.00174371   0.735905
43.20040  20.27410   82.1773   0.55594  -48.40998  0.00174240   0.735556
43.29810  20.29150   82.2765   0.47738  -48.38839  0.00174084   0.735079
43.39720  20.30410   82.3764   0.39847  -48.37510  0.00173989   0.734828
43.49640  20.31660   82.4764   0.32125  -48.35932  0.00173875   0.734472
43.59660  20.32430   82.5769   0.24021  -48.35267  0.00173828   0.734371
43.69680  20.33190   82.6774   0.16043  -48.34187  0.00173750   0.734113
43.79750  20.33440   82.7781   0.07965  -48.34104  0.00173744   0.734131
43.89820  20.33700   82.8788   0.00321  -48.33606  0.00173708   0.733994
43.99890  20.33440   82.9796   0.08095  -48.34104  0.00173744   0.734131
44.09960  20.33190   83.0803   0.16078  -48.34187  0.00173750   0.734113
44.19980  20.32430   83.1808   0.23894  -48.35184  0.00173822   0.734347
44.30000  20.31660   83.2813   0.31582  -48.35932  0.00173875   0.734479
44.39910  20.30410   83.3812   0.39537  -48.37510  0.00173989   0.734834
44.49830  20.29150   83.4812   0.47349  -48.38839  0.00174084   0.735088
44.59600  20.27410   83.5804   0.55186  -48.40998  0.00174240   0.735566
44.69370  20.25680   83.6796   0.63040  -48.42909  0.00174377   0.735942
44.78950  20.23490   83.7779   0.71461  -48.45567  0.00174569   0.736500
44.88530  20.21300   83.8762   0.79719  -48.47892  0.00174737   0.736932
44.97890  20.18680   83.9734   0.88344  -48.50966  0.00174958   0.737548
45.07250  20.16060   84.0706   0.96152  -48.53790  0.00175162   0.738090
45.16360  20.13050   84.1665   1.04101  -48.57278  0.00175414   0.738802
45.25480  20.10030   84.2626   1.12100  -48.60518  0.00175648   0.739408
45.34320  20.06650   84.3572   1.20157  -48.64422  0.00175930   0.740187
45.43170  20.03270   84.4520   1.28222  -48.68076  0.00176195   0.740861
45.51740  19.99550   84.5454   1.36088  -48.72396  0.00176507   0.741722
45.60300  19.95820   84.6388   1.44436  -48.76299  0.00176790   0.742399
45.68580  19.91790   84.7308   1.52858  -48.80868  0.00177122   0.743245
45.76860  19.87760   84.8229   1.61314  -48.85104  0.00177429   0.743957
45.84840  19.83450   84.9136   1.69230  -48.89922  0.00177779   0.744857
45.92820  19.79140   85.0043   1.77735  -48.94407  0.00178106   0.745583
46.00510  19.74570   85.0938   1.86324  -48.99391  0.00178469   0.746424
46.08200  19.70000   85.1832   1.94962  -49.04125  0.00178814   0.747153
46.15590  19.65200   85.2713   2.02687  -49.09275  0.00179189   0.748061
46.22990  19.60410   85.3595   2.11085  -49.14176  0.00179547   0.748804
46.30100  19.55400   85.4465   2.19607  -49.19408  0.00179930   0.749608
46.37200  19.50390   85.5334   2.28179  -49.24475  0.00180301   0.750326
46.44020  19.45180   85.6192   2.37623  -49.29791  0.00180690   0.750998
46.50840  19.39980   85.7050   2.46411  -49.34941  0.00181068   0.751652
46.57390  19.34610   85.7897   2.55157  -49.40340  0.00181464   0.752356
46.63930  19.29240   85.8743   2.63945  -49.45573  0.00181849   0.752971
46.70200  19.23710   85.9579   2.72866  -49.51055  0.00182252   0.753616
46.76470  19.18180   86.0415   2.81828  -49.56288  0.00182638   0.754144
46.82480  19.12500   86.1242   2.90558  -49.61770  0.00183042   0.754746
46.88480  19.06830   86.2067   2.99454  -49.67003  0.00183428   0.755217
46.94230  19.01030   86.2884   3.08350  -49.72485  0.00183833   0.755731
46.99980  18.95220   86.3701   3.17669  -49.77801  0.00184227   0.756102
47.05480  18.89300   86.4510   3.28035  -49.83200  0.00184627   0.756310
47.10970  18.83380   86.5317   3.37862  -49.88350  0.00185008   0.756475
47.16230  18.77350   86.6117   3.47306  -49.93666  0.00185403   0.756709
47.21480  18.71320   86.6917   3.56758  -49.98732  0.00185779   0.756827
47.26500  18.65200   86.7708   3.66385  -50.04048  0.00186175   0.756956
47.31510  18.59070   86.8500   3.76062  -50.09032  0.00186546   0.756934
47.36300  18.52850   86.9285   3.85605  -50.14182  0.00186930   0.756946
47.41080  18.46630   87.0069   3.95299  -50.19165  0.00187301   0.756842
47.45650  18.40330   87.0848   4.05341  -50.24232  0.00187680   0.756661
47.50210  18.34030   87.1625   4.15640  -50.28967  0.00188034   0.756284
47.54550  18.27660   87.2396   4.25857  -50.33867  0.00188400   0.755930
47.58890  18.21280   87.3168   4.36414  -50.38519  0.00188748   0.755387
47.63030  18.14840   87.3933   4.46789  -50.43253  0.00189103   0.754859
47.67160  18.08400   87.4698   4.57587  -50.47739  0.00189440   0.754119
47.71080  18.01890   87.5458   4.68169  -50.52224  0.00189777   0.753374
47.75000  17.95380   87.6218   4.79183  -50.56460  0.00190095   0.752409
47.78730  17.88820   87.6973   4.89607  -50.60779  0.00190420   0.751547
47.82450  17.82250   87.7728   5.00596  -50.64849  0.00190726   0.750433
47.85970  17.75630   87.8478   5.11668  -50.68919  0.00191033   0.749247
47.89500  17.69010   87.9228   5.23047  -50.72740  0.00191321   0.747858
47.92830  17.62350   87.9972   5.34635  -50.76561  0.00191609   0.746364
47.96160  17.55680   88.0718   5.46296  -50.80133  0.00191879   0.744713
47.99300  17.48960   88.1460   5.58374  -50.83704  0.00192149   0.742901
48.02440  17.42250   88.2201   5.70899  -50.86944  0.00192394   0.740805
48.05400  17.35500   88.2938   5.83192  -50.90183  0.00192639   0.738700
48.08350  17.28740   88.3675   5.95859  -50.93090  0.00192859   0.736324
48.11130  17.21950   88.4409   6.07421  -50.95914  0.00193073   0.734148
48.13900  17.15160   88.5142   6.20155  -50.98572  0.00193275   0.731540
48.16500  17.08330   88.5873   6.32855  -51.01064  0.00193464   0.728816
48.19100  17.01510   88.6603   6.46153  -51.03307  0.00193634   0.725770
48.21520  16.94650   88.7330   6.59684  -51.05383  0.00193791   0.722525
48.23940  16.87790   88.8058   6.73289  -51.07294  0.00193936   0.719123
48.26190  16.80910   88.8782   6.87601  -51.09038  0.00194069   0.715372
48.28440  16.74020   88.9506   7.02386  -51.10367  0.00194170   0.711249
48.30510  16.67110   89.0228   7.16216  -51.11613  0.00194265   0.707307
48.32590  16.60190   89.0950   7.31208  -51.12527  0.00194334   0.702797
48.34500  16.53260   89.1669   7.45902  -51.13274  0.00194391   0.698232
48.36420  16.46320   89.2389   7.61684  -51.13607  0.00194416   0.693073
48.38160  16.39360   89.3107   7.77698  -51.13773  0.00194429   0.687669
48.39910  16.32410   89.3823   7.93762  -51.13607  0.00194416   0.682028
48.41490  16.25430   89.4539   8.11113  -51.13274  0.00194391   0.675757
48.43070  16.18450   89.5255   8.28889  -51.12444  0.00194328   0.669037
48.44490  16.11460   89.5968   8.46980  -51.11364  0.00194246   0.661980
48.45910  16.04460   89.6682   8.66001  -51.09786  0.00194126   0.654260
48.47170  15.97450   89.7394   8.85354  -51.07875  0.00193981   0.646145
48.48430  15.90440   89.8107   9.04624  -51.05467  0.00193798   0.637736
48.49530  15.83420   89.8817   9.30456  -51.02809  0.00193596   0.626391
48.50630  15.76400   89.9528   9.53381  -50.99403  0.00193338   0.615740
48.51570  15.69370   90.0237   9.76390  -50.95582  0.00193048   0.604688
48.52520  15.62330   90.0947   9.99315  -50.91097  0.00192708   0.593226
48.53360  15.55450   90.1641  10.30712  -50.86196  0.00192337   0.577551
48.54200  15.48570   90.2334  10.54551  -50.80548  0.00191911   0.564743
48.55050  15.41700   90.3026  10.78306  -50.74401  0.00191446   0.551567
48.55890  15.34820   90.3719  11.01979  -50.67673  0.00190939   0.537999
48.56740  15.27940   90.4412  11.29472  -50.60198  0.00190376   0.522040
48.57580  15.21060   90.5105  11.51899  -50.52224  0.00189777   0.508181
48.58430  15.14180   90.5799  11.76153  -50.43669  0.00189135   0.492969
48.59270  15.07300   90.6492  11.98496  -50.34615  0.00188456   0.478358
48.60120  15.00430   90.7184  12.21172  -50.24980  0.00187735   0.463168
48.60960  14.93550   90.7877  12.43267  -50.14763  0.00186973   0.447892
48.61810  14.86670   90.8570  12.65278  -50.04048  0.00186175   0.432298
48.62650  14.79790   90.9263  12.87206  -49.92752  0.00185335   0.416360
48.63490  14.72910   90.9957  13.10879  -49.80957  0.00184460   0.399050
48.64340  14.66030   91.0650  13.33056  -49.68581  0.00183545   0.382203
48.65180  14.59160   91.1342  13.56812  -49.55623  0.00182589   0.364018
48.66030  14.52280   91.2035  13.79654  -49.42084  0.00181593   0.345972
48.66870  14.45400   91.2728  14.02413  -49.27964  0.00180556   0.327579
48.67720  14.38520   91.3421  14.25088  -49.13345  0.00179487   0.308866
48.68560  14.31640   91.4115  14.53163  -48.97979  0.00178366   0.286243
48.69410  14.24760   91.4808  14.76919  -48.81948  0.00177200   0.265910
48.70290  14.17820   91.5507  15.00841  -48.65169  0.00175984   0.245004
48.71180  14.10870   91.6208  15.24679  -48.47809  0.00174731   0.223742
48.72130  14.03930   91.6908  15.52173  -48.29536  0.00173416   0.199461
48.73080  13.96980   91.7610  15.74599  -48.10764  0.00172070   0.178254
48.74090  13.90050   91.8310  15.97109  -47.91410  0.00170689   0.156613
48.75110  13.83110   91.9012  16.19453  -47.71393  0.00169265   0.134690
48.76190  13.76170   91.9714  16.42045  -47.50627  0.00167795   0.112167
48.77270  13.69240   92.0415  16.62562  -47.29363  0.00166296   0.090827
48.78420  13.62310   92.1118  16.83161  -47.07601  0.00164770   0.069120
48.79570  13.55380   92.1820  17.03677  -46.85258  0.00163209   0.047146
48.80780  13.48460   92.2523  17.24858  -46.62083  0.00161599   0.024266
48.82000  13.41540   92.3226  17.43962  -46.38494  0.00159967   0.002704
48.83280  13.34620   92.3929  17.64728  -46.14323  0.00158305  -0.020450
48.84570  13.27710   92.4632  17.83084  -45.89654  0.00156617  -0.041999
48.85920  13.20800   92.5336  18.01441  -45.64403  0.00154898  -0.063825
48.87280  13.13890   92.6041  18.19797  -45.38654  0.00153155  -0.085903
48.88710  13.06980   92.6746  18.38071  -45.12074  0.00151367  -0.108257
48.90130  13.00080   92.7451  18.55348  -44.85245  0.00149572  -0.129965
48.91630  12.93190   92.8156  18.74120  -44.57752  0.00147744  -0.153186
48.93130  12.86290   92.8862  18.90566  -44.29760  0.00145894  -0.174707
48.94710  12.79400   92.9569  19.07095  -44.01270  0.00144024  -0.196506
48.96280  12.72520   93.0274  19.23541  -43.72198  0.00142127  -0.218464
48.97930  12.65640   93.0982  19.39905  -43.42462  0.00140201  -0.240599
48.99580  12.58760   93.1690  19.55354  -43.12394  0.00138266  -0.262096
49.01310  12.51890   93.2398  19.72382  -42.81744  0.00136307  -0.285175
49.03030  12.45020   93.3106  19.86917  -42.50596  0.00134331  -0.306264
49.04840  12.38160   93.3816  20.01619  -42.18950  0.00132339  -0.327664
49.06640  12.31300   93.4525  20.16238  -41.86805  0.00130330  -0.349154
49.08530  12.24460   93.5234  20.30691  -41.53912  0.00128290  -0.370720
49.10420  12.17610   93.5945  20.44313  -41.20688  0.00126246  -0.391644
49.12390  12.10770   93.6657  20.59679  -40.86965  0.00124188  -0.414299
49.14360  12.03930   93.7369  20.72388  -40.52743  0.00122117  -0.434674
49.16410  11.97110   93.8081  20.85179  -40.18024  0.00120034  -0.455249
49.18470  11.90280   93.8794  20.97888  -39.82805  0.00117939  -0.475869
49.20610  11.83470   93.9508  21.10430  -39.46840  0.00115818  -0.496512
49.22760  11.76660   94.0222  21.22225  -39.10708  0.00113707  -0.516482
49.24990  11.69870   94.0937  21.35681  -38.73912  0.00111578  -0.538163
49.27220  11.63070   94.1653  21.46396  -38.36700  0.00109444  -0.557333
49.29550  11.56290   94.2369  21.57194  -37.98907  0.00107299  -0.576686
49.31880  11.49510   94.3086  21.67992  -37.60782  0.00105156  -0.596078
49.34300  11.42740   94.3805  21.77876  -37.21909  0.00102993  -0.614725
49.36720  11.35980   94.4523  21.87843  -36.82787  0.00100840  -0.633458
49.39240  11.29230   94.5244  22.00718  -36.43000  0.00098672  -0.655121
49.41770  11.22480   94.5965  22.09606  -36.02798  0.00096507  -0.672949
49.44390  11.15750   94.6687  22.20321  -35.61932  0.00094330  -0.692654
49.47010  11.09030   94.7408  22.28461  -35.20734  0.00092160  -0.709837
49.49750  11.02320   94.8133  22.37265  -34.78954  0.00089986  -0.727728
49.52480  10.95610   94.8857  22.44741  -34.36841  0.00087821  -0.744294
49.55320  10.88930   94.9583  22.52382  -33.94148  0.00085652  -0.761064
49.58160  10.82240   95.0310  22.60024  -33.51122  0.00083495  -0.777814
49.61120  10.75580   95.1039  22.66337  -33.07265  0.00081323  -0.793313
49.64080  10.68920   95.1768  22.72982  -32.63242  0.00079173  -0.809077
49.67160  10.62290   95.2499  22.82617  -32.18472  0.00077015  -0.827909
49.70240  10.55660   95.3230  22.88016  -31.73370  0.00074872  -0.842428
49.73440  10.49060   95.3963  22.95325  -31.27520  0.00072724  -0.858920
49.76640  10.42450   95.4698  23.00226  -30.81421  0.00070596  -0.872897
49.79980  10.35880   95.5435  23.07203  -30.34408  0.00068458  -0.889046
49.83320  10.29310   95.6172  23.11107  -29.87312  0.00066350  -0.901946
49.86790  10.22770   95.6912  23.15925  -29.39385  0.00064238  -0.915804
49.90270  10.16240   95.7652  23.19081  -28.91292  0.00062153  -0.927852
49.93890  10.09740   95.8396  23.22569  -28.42452  0.00060071  -0.940234
49.97510  10.03250   95.9139  23.26058  -27.93363  0.00058014  -0.952515
50.01290   9.96793   95.9887  23.27636  -27.43194  0.00055949  -0.962867
50.05060   9.90340   96.0635  23.30045  -26.93024  0.00053921  -0.973919
50.09000   9.83934   96.1387  23.35859  -26.41858  0.00051892  -0.988499
50.12940   9.77529   96.2139  23.36773  -25.90526  0.00049895  -0.997882
50.17050   9.71178   96.2895  23.39763  -25.38114  0.00047896  -1.009422
50.21160   9.64826   96.3652  23.40179  -24.85619  0.00045935  -1.018138
50.25460   9.58535   96.4414  23.42421  -24.32045  0.00043977  -1.028739
50.29750   9.52243   96.5175  23.41923  -23.78387  0.00042057  -1.036331
50.34250   9.46020   96.5943  23.43584  -23.23483  0.00040138  -1.046164
50.38740   9.39797   96.6711  23.42255  -22.68579  0.00038264  -1.052706
50.43440   9.33651   96.7484  23.43252  -22.12430  0.00036393  -1.061645
50.48150   9.27504   96.8259  23.40843  -21.56280  0.00034569  -1.066854
50.53080   9.21446   96.9040  23.46076  -20.98552  0.00032743  -1.079999
50.58010   9.15388   96.9821  23.42920  -20.40907  0.00030969  -1.084219
50.63180   9.09431   97.0610  23.40677  -19.82100  0.00029210  -1.089327
50.68360   9.03474   97.1399  23.38683  -19.23043  0.00027495  -1.094507
50.73800   8.97634   97.2197  23.36939  -18.62325  0.00025786  -1.099923
50.79240   8.91794   97.2995  23.33866  -18.01690  0.00024134  -1.103725
50.84970   8.86090   97.3804  23.31125  -17.39228  0.00022490  -1.107843
50.90690   8.80387   97.4611  23.26972  -16.77014  0.00020910  -1.110237
50.96730   8.74845   97.5431  23.24231  -16.12725  0.00019337  -1.114060
51.02770   8.69302   97.6251  23.18998  -15.48684  0.00017832  -1.115042
51.09150   8.63950   97.7084  23.22653  -14.82152  0.00016333  -1.125132
51.15530   8.58598   97.7917  23.15509  -14.15952  0.00014906  -1.123825
51.22290   8.53475   97.8765  23.10692  -13.47924  0.00013509  -1.124799
51.29040   8.48352   97.9612  23.06539  -12.79648  0.00012175  -1.126190
51.36190   8.43506   98.0476  23.01555  -12.08713  0.00010862  -1.126652
51.43340   8.38659   98.1340  22.96820  -11.38111  0.00009630  -1.127038
51.50930   8.34148   98.2223  22.96903  -10.64269  0.00008421  -1.132232
51.58520   8.29638   98.3105  22.88514   -9.91008  0.00007302  -1.128447
51.66570   8.25539   98.4009  22.84610   -9.15339  0.00006229  -1.129027
51.74620   8.21440   98.4912  22.82202   -8.39421  0.00005239  -1.130777
51.83140   8.17844   98.5837  22.76221   -7.59806  0.00004292  -1.128742
51.91660   8.14249   98.6762  22.68081   -6.81164  0.00003450  -1.124114
52.00650   8.11265   98.7709  22.66669   -5.99913  0.00002676  -1.125967
52.09640   8.08282   98.8656  22.67832   -5.18371  0.00001998  -1.129999
52.19050   8.06030   98.9624  22.55373   -4.33092  0.00001395  -1.120074
52.28460   8.03777   99.0591  22.50721   -3.49316  0.00000907  -1.117493
52.38200   8.02369   99.1575  22.51635   -2.62383  0.00000512  -1.120074
52.47940   8.00960   99.2560  22.48562   -1.76581  0.00000232  -1.118196
52.57860   8.00480   99.3553  22.47731   -0.88336  0.00000058  -1.118104
52.67780   8.00000   99.4546  22.47066   -0.01482  0.00000000  -1.117688
52.77890   8.00499   99.5558  22.47565    0.88577  0.00000058  -1.117937
52.88010   8.00998   99.6571  22.49558    1.77112  0.00000233  -1.119183
52.97930   8.02461   99.7574  22.47149    2.65673  0.00000525  -1.115553
53.07850   8.03923   99.8577  22.63513    3.54482  0.00000934  -1.130161
53.17430   8.06259   99.9563  22.59276    4.40110  0.00001440  -1.123782
53.27000   8.08595  100.0548  22.58197    5.25373  0.00002052  -1.120116
53.36140   8.11683  100.1513  22.65589    6.08111  0.00002749  -1.124573
53.45270   8.14771  100.2477  22.75889    6.90890  0.00003549  -1.131549
53.53920   8.18487  100.3418  22.73480    7.71219  0.00004422  -1.125433
53.62570   8.22202  100.4359  22.77633    8.52212  0.00005400  -1.125486
53.70720   8.26431  100.5278  22.80208    9.29127  0.00006418  -1.123780
53.78880   8.30660  100.6197  22.86022   10.06292  0.00007529  -1.124965
53.86550   8.35306  100.7093  22.89345   10.80383  0.00008678  -1.123473
53.94230   8.39952  100.7991  22.93747   11.54308  0.00009907  -1.122749
54.01460   8.44939  100.8869  23.01804   12.25824  0.00011172  -1.125597
54.08700   8.49926  100.9748  23.00973   12.97921  0.00012525  -1.119034
54.15520   8.55191  101.0610  23.05542   13.66945  0.00013892  -1.117914
54.22330   8.60457  101.1471  23.09280   14.36302  0.00015338  -1.115624
54.28770   8.65952  101.2317  23.13017   15.03083  0.00016797  -1.113282
54.35210   8.71447  101.3164  23.17254   15.69699  0.00018319  -1.111193
54.41300   8.77135  101.3997  23.23317   16.34570  0.00019865  -1.110891
54.47390   8.82822  101.4831  23.18583   16.99607  0.00021477  -1.099214
54.53160   8.88670  101.5652  23.23234   17.62402  0.00023093  -1.097164
54.58930   8.94519  101.6474  23.24397   18.25446  0.00024775  -1.091254
54.64410   9.00504  101.7285  23.27968   18.86579  0.00026462  -1.087803
54.69890   9.06490  101.8097  23.28467   19.47795  0.00028207  -1.080942
54.75100   9.12592  101.8899  23.31208   20.07267  0.00029956  -1.076380
54.80310   9.18695  101.9702  23.31042   20.66823  0.00031760  -1.068586
54.85270   9.24899  102.0496  23.33035   21.24883  0.00033570  -1.062999
54.90230   9.31103  102.1290  23.32205   21.82943  0.00035429  -1.054283
54.94960   9.37394  102.2077  23.33284   22.39508  0.00037289  -1.047540
54.99690   9.43686  102.2864  23.31789   22.96073  0.00039197  -1.037936
55.04200   9.50055  102.3645  23.32205   23.51309  0.00041105  -1.030300
55.08720   9.56423  102.4426  23.30045   24.06545  0.00043059  -1.019815
55.13030   9.62860  102.5200  23.29630   24.60535  0.00045013  -1.011131
55.17350   9.69296  102.5976  23.26806   25.14442  0.00047007  -0.999795
55.21470   9.75793  102.6745  23.25726   25.67186  0.00049000  -0.990263
55.25600   9.82289  102.7515  23.22154   26.19847  0.00051030  -0.978007
55.29550   9.88840  102.8280  23.20327   26.71345  0.00053056  -0.967568
55.33500   9.95390  102.9044  23.16091   27.22843  0.00055122  -0.954494
55.37290  10.01990  102.9806  23.13433   27.73262  0.00057182  -0.943065
55.41070  10.08590  103.0566  23.08615   28.23514  0.00059273  -0.929300
55.44700  10.15230  103.1323  23.05210   28.72853  0.00061363  -0.916992
55.48330  10.21870  103.2080  22.99644   29.21942  0.00063478  -0.902383
55.51810  10.28550  103.2833  22.95741   29.70201  0.00065592  -0.889479
55.55290  10.35230  103.3586  22.87351   30.18211  0.00067729  -0.871936
55.58630  10.41940  103.4336  22.82035   30.65224  0.00069856  -0.857574
55.61970  10.48660  103.5086  22.75474   31.12153  0.00072011  -0.841847
55.65170  10.55410  103.5833  22.71237   31.58253  0.00074160  -0.828502
55.68380  10.62150  103.6580  22.65008   32.03936  0.00076321  -0.813116
55.71450  10.68930  103.7324  22.59027   32.48956  0.00078481  -0.798001
55.74530  10.75710  103.8068  22.51552   32.93726  0.00080659  -0.781335
55.77480  10.82510  103.8810  22.44741   33.37749  0.00082829  -0.765384
55.80440  10.89310  103.9551  22.35189   33.81605  0.00085020  -0.746654
55.83280  10.96140  104.0291  22.27630   34.24631  0.00087198  -0.729987
55.86110  11.02970  104.1030  22.15918   34.67325  0.00089385  -0.709224
55.88840  11.09820  104.1768  22.07114   35.09188  0.00091557  -0.691428
55.91560  11.16670  104.2505  21.96897   35.50885  0.00093746  -0.672220
55.94170  11.23540  104.3240  21.88923   35.91834  0.00095920  -0.655290
55.96790  11.30410  104.3975  21.79205   36.32285  0.00098093  -0.636713
55.99300  11.37310  104.4709  21.69736   36.72238  0.00100263  -0.618429
56.01810  11.44200  104.5442  21.59021   37.11775  0.00102433  -0.598991
56.04220  11.51100  104.6173  21.48888   37.50731  0.00104595  -0.580195
56.06630  11.58010  104.6905  21.34435   37.89272  0.00106755  -0.557362
56.08940  11.64940  104.7636  21.23055   38.27065  0.00108895  -0.537595
56.11250  11.71860  104.8365  21.10098   38.64609  0.00111042  -0.516381
56.13470  11.78800  104.9094  20.99300   39.01488  0.00113172  -0.497322
56.15680  11.85740  104.9822  20.87173   39.37869  0.00115292  -0.477124
56.17810  11.92690  105.0549  20.75046   39.73669  0.00117398  -0.457054
56.19930  11.99650  105.1277  20.60261   40.09053  0.00119498  -0.434646
56.21970  12.06620  105.2003  20.47137   40.43773  0.00121577  -0.413930
56.24000  12.13580  105.2728  20.31937   40.78160  0.00123653  -0.391431
56.25950  12.20560  105.3453  20.19145   41.11883  0.00125707  -0.371284
56.27900  12.27540  105.4177  20.04942   41.45191  0.00127752  -0.349992
56.29760  12.34530  105.4901  19.90904   41.77834  0.00129772  -0.329041
56.31630  12.41520  105.5624  19.74292   42.09979  0.00131776  -0.305989
56.33410  12.48520  105.6347  19.59341   42.41542  0.00133760  -0.284590
56.35190  12.55530  105.7070  19.42313   42.72774  0.00135737  -0.261531
56.36890  12.62540  105.7791  19.27528   43.03340  0.00137686  -0.240630
56.38580  12.69550  105.8512  19.11497   43.33326  0.00139611  -0.218872
56.40210  12.76570  105.9233  18.95550   43.62812  0.00141518  -0.197376
56.41830  12.83590  105.9953  18.77193   43.91718  0.00143399  -0.174097
56.43370  12.90620  106.0673  18.60415   44.20042  0.00145255  -0.152374
56.44910  12.97650  106.1393  18.41476   44.47951  0.00147095  -0.129081
56.46380  13.04680  106.2111  18.24781   44.75195  0.00148902  -0.107894
56.47850  13.11720  106.2830  18.06923   45.01858  0.00150682  -0.086019
56.49240  13.18760  106.3548  17.89065   45.28022  0.00152439  -0.064381
56.50630  13.25810  106.4266  17.68798   45.53522  0.00154160  -0.041145
56.51950  13.32860  106.4983  17.50192   45.78523  0.00155858  -0.019479
56.53270  13.39910  106.5701  17.29094   46.02944  0.00157525   0.003813
56.54520  13.46970  106.6418  17.09824   46.26782  0.00159161   0.025394
56.55770  13.54030  106.7135  16.89806   46.50040  0.00160765   0.047236
56.56940  13.61090  106.7850  16.69788   46.72632  0.00162331   0.068740
56.58120  13.68150  106.8566  16.48275   46.94644  0.00163864   0.091018
56.59230  13.75220  106.9282  16.27593   47.16157  0.00165369   0.112376
56.60330  13.82290  106.9997  16.05914   47.37005  0.00166834   0.134084
56.61370  13.89370  107.0713  15.84235   47.57189  0.00168259   0.155413
56.62410  13.96440  107.1427  15.59233   47.76709  0.00169643   0.178656
56.63380  14.03520  107.2142  15.36723   47.95564  0.00170985   0.199752
56.64350  14.10600  107.2857  15.09562   48.13837  0.00172290   0.223584
56.65250  14.17680  107.3570  14.84394   48.31363  0.00173547   0.245574
56.66160  14.24760  107.4284  14.60556   48.48225  0.00174760   0.266241
56.67000  14.31640  107.4977  14.37299   48.63923  0.00175894   0.285950
56.67850  14.38520  107.5671  14.11716   48.78957  0.00176983   0.306685
56.68690  14.45400  107.6364  13.86714   48.93410  0.00178033   0.326609
56.69540  14.52280  107.7057  13.64287   49.07281  0.00179044   0.344537
56.70380  14.59160  107.7750  13.41778   49.20571  0.00180015   0.362123
56.71220  14.66030  107.8442  13.18437   49.33280  0.00180946   0.379801
56.72070  14.72910  107.9135  12.95928   49.45407  0.00181837   0.396591
56.72910  14.79790  107.9828  12.74165   49.57035  0.00182693   0.412590
56.73760  14.86670  108.0522  12.52237   49.68083  0.00183508   0.428297
56.74600  14.93550  108.1215  12.29478   49.78631  0.00184288   0.444096
56.75450  15.00430  108.1908  12.07633   49.88599  0.00185027   0.459002
56.76290  15.07300  108.2600  11.84542   49.98068  0.00185730   0.474200
56.77140  15.14180  108.3293  11.61866   50.06955  0.00186391   0.488771
56.77980  15.21060  108.3986  11.39440   50.15345  0.00187016   0.502836
56.78830  15.27940  108.4680  11.16930   50.23152  0.00187599   0.516541
56.79670  15.34820  108.5373  10.92261   50.30296  0.00188133   0.530861
56.80510  15.41700  108.6066  10.67425   50.37024  0.00188636   0.544862
56.81360  15.48570  108.6758  10.43420   50.43087  0.00189091   0.557998
56.82200  15.55450  108.7451  10.19415   50.48569  0.00189502   0.570697
56.83050  15.62330  108.8145   9.92587   50.53304  0.00189858   0.584148
56.83990  15.69370  108.8855   9.68748   50.57623  0.00190183   0.595870
56.84930  15.76400  108.9564   9.42500   50.61278  0.00190457   0.608136
56.86030  15.83420  109.0275   9.17914   50.64517  0.00190701   0.619292
56.87130  15.90440  109.0985   8.97149   50.67258  0.00190908   0.628507
56.88390  15.97450  109.1697   8.76549   50.69501  0.00191077   0.637309
56.89650  16.04460  109.2410   8.56532   50.71245  0.00191208   0.645544
56.91070  16.11460  109.3124   8.37677   50.72740  0.00191321   0.653091
56.92490  16.18450  109.3837   8.20491   50.73654  0.00191390   0.659690
56.94080  16.25430  109.4553   8.02193   50.74401  0.00191446   0.666501
56.95660  16.32410  109.5269   7.85456   50.74734  0.00191472   0.672489
56.97400  16.39360  109.5985   7.68918   50.74900  0.00191484   0.678232
56.99150  16.46320  109.6703   7.53178   50.74651  0.00191465   0.683456
57.01060  16.53260  109.7423   7.37471   50.74152  0.00191428   0.688480
57.02970  16.60190  109.8141   7.23276   50.73322  0.00191365   0.692805
57.05050  16.67110  109.8864   7.08034   50.72325  0.00191290   0.697316
57.07130  16.74020  109.9586   6.93573   50.70996  0.00191190   0.701379
57.09380  16.80910  110.0310   6.79336   50.69584  0.00191083   0.705256
57.11620  16.87790  110.1034   6.65972   50.67840  0.00190952   0.708680
57.14050  16.94650  110.1762   6.52358   50.65929  0.00190808   0.712045
57.16470  17.01510  110.2489   6.39575   50.63770  0.00190645   0.715013
57.19060  17.08330  110.3219   6.26019   50.61527  0.00190476   0.718097
57.21660  17.15160  110.3950   6.13352   50.58952  0.00190282   0.720754
57.24430  17.21950  110.4683   6.00353   50.56211  0.00190076   0.723375
57.27210  17.28740  110.5417   5.87836   50.53304  0.00189858   0.725744
57.30170  17.35500  110.6155   5.75534   50.50314  0.00189633   0.727963
57.33120  17.42250  110.6891   5.63648   50.47074  0.00189390   0.729932
57.36260  17.48960  110.7632   5.51820   50.43752  0.00189141   0.731800
57.39410  17.55680  110.8374   5.40723   50.40180  0.00188873   0.733352
57.42740  17.62350  110.9120   5.28953   50.36608  0.00188605   0.735008
57.46070  17.69010  110.9864   5.17773   50.32788  0.00188319   0.736390
57.49590  17.75630  111.0614   5.06294   50.28967  0.00188034   0.737784
57.53120  17.82250  111.1364   4.95380   50.24897  0.00187729   0.738919
57.56840  17.88820  111.2119   4.84175   50.20827  0.00187425   0.740064
57.60560  17.95380  111.2873   4.73518   50.16507  0.00187103   0.740961
57.64480  18.01890  111.3633   4.62579   50.12188  0.00186781   0.741867
57.68410  18.08400  111.4394   4.52154   50.07703  0.00186447   0.742565
57.72540  18.14840  111.5159   4.41464   50.03218  0.00186113   0.743269
57.76670  18.21280  111.5924   4.31248   49.98483  0.00185761   0.743755
57.81010  18.27660  111.6696   4.20799   49.93832  0.00185415   0.744266
57.85360  18.34030  111.7467   4.10781   49.88931  0.00185052   0.744573
57.89920  18.40330  111.8245   4.00548   49.84113  0.00184694   0.744901
57.94480  18.46630  111.9022   3.90697   49.79047  0.00184319   0.745041
57.99270  18.52850  111.9807   3.80680   49.74146  0.00183956   0.745219
58.04050  18.59070  112.0592   3.70962   49.68913  0.00183570   0.745201
58.09070  18.65200  112.1384   3.61177   49.63846  0.00183195   0.745206
58.14080  18.71320  112.2175   3.51633   49.58614  0.00182809   0.745080
58.19340  18.77350  112.2975   3.42363   49.53464  0.00182430   0.744901
58.24590  18.83380  112.3775   3.33227   49.48065  0.00182032   0.744588
58.30090  18.89300  112.4583   3.23940   49.42915  0.00181654   0.744338
58.35590  18.95220  112.5391   3.14704   49.37516  0.00181257   0.743968
58.41330  19.01030  112.6208   3.05609   49.32283  0.00180873   0.743595
58.47080  19.06830  112.7024   2.96480   49.26801  0.00180471   0.743113
58.53090  19.12500  112.7851   2.87136   49.21568  0.00180088   0.742701
58.59090  19.18180  112.8677   2.77285   49.16086  0.00179687   0.742238
58.65360  19.23710  112.9513   2.68588   49.10853  0.00179305   0.741673
58.71630  19.29240  113.0349   2.60166   49.05371  0.00178905   0.740968
58.78180  19.34610  113.1196   2.51403   49.00138  0.00178523   0.740349
58.84720  19.39980  113.2042   2.42681   48.94739  0.00178130   0.739641
58.91540  19.45180  113.2900   2.34093   48.89589  0.00177755   0.738965
58.98360  19.50390  113.3758   2.26094   48.84273  0.00177369   0.738147
59.05470  19.55400  113.4628   2.17347   48.79207  0.00177001   0.737451
59.12570  19.60410  113.5497   2.08643   48.73974  0.00176622   0.736669
59.19970  19.65200  113.6378   2.00037   48.69073  0.00176267   0.735947
59.27360  19.70000  113.7259   1.92097   48.63923  0.00175894   0.735062
59.35050  19.74570  113.8154   1.83541   48.59189  0.00175552   0.734327
59.42740  19.79140  113.9048   1.75019   48.54205  0.00175192   0.733483
59.50720  19.83450  113.9955   1.66588   48.49720  0.00174868   0.732753
59.58710  19.87760  114.0863   1.58789   48.44902  0.00174521   0.731847
59.66980  19.91790  114.1783   1.50408   48.40666  0.00174216   0.731132
59.75260  19.95820  114.2704   1.42060   48.36098  0.00173887   0.730283
59.83830  19.99550  114.3639   1.33779   48.32111  0.00173601   0.729578
59.92390  20.03270  114.4572   1.26154   48.27875  0.00173296   0.728731
60.01240  20.06650  114.5519   1.18180   48.24220  0.00173034   0.728054
60.10090  20.10030  114.6467   1.10231   48.20316  0.00172754   0.727273
60.19200  20.13050  114.7426   1.02307   48.17077  0.00172522   0.726665
60.28310  20.16060  114.8386   0.94400   48.13505  0.00172266   0.725929
60.37670  20.18680  114.9358   0.85553   48.10598  0.00172058   0.725402
60.47030  20.21300  115.0330   0.77454   48.07524  0.00171839   0.724766
60.56620  20.23490  115.1314   0.69594   48.05116  0.00171666   0.724295
60.66200  20.25680  115.2296   0.61751   48.02458  0.00171477   0.723720
60.75970  20.27410  115.3288   0.53935   48.00547  0.00171340   0.723344
60.85730  20.29150  115.4280   0.46135   47.98388  0.00171186   0.722866
60.95650  20.30410  115.5280   0.38291   47.97059  0.00171091   0.722612
61.05570  20.31660  115.6280   0.30616   47.95397  0.00170973   0.722228
61.15590  20.32430  115.7285   0.22551   47.94650  0.00170919   0.722098
61.25600  20.33190  115.8289   0.14616   47.93653  0.00170848   0.721863
61.35670  20.33440  115.9296   0.06564   47.93404  0.00170831   0.721825
61.45750  20.33700  116.0304   0.01429   47.92906  0.00170795   0.721684
EndData
EndFile
